##TITLE=No Description
##DATA TYPE=INFRARED SPECTRUM
##XUNITS=1/CM
##YUNITS=%T
399.970602  	98.526068 
401.399069  	104.237581 
402.827535  	106.590810 
404.256001  	105.687472 
405.684468  	104.372653 
407.112934  	105.198920 
408.541401  	107.356171 
409.969867  	109.459288 
411.398334  	110.794668 
412.826800  	110.945506 
414.255267  	110.079066 
415.683733  	108.919481 
417.112199  	107.215447 
418.540666  	103.406939 
419.969132  	102.542087 
421.397599  	103.998860 
422.826065  	104.950497 
424.254532  	107.153240 
425.682998  	109.162444 
427.111464  	108.585191 
428.539931  	107.469932 
429.968397  	108.502663 
431.396864  	109.786056 
432.825330  	108.571745 
434.253797  	106.591943 
435.682263  	106.076477 
437.110730  	106.774286 
438.539196  	106.782040 
439.967662  	105.700200 
441.396129  	104.621705 
442.824595  	104.518260 
444.253062  	104.527210 
445.681528  	104.690506 
447.109995  	106.208190 
448.538461  	107.315163 
449.966927  	106.428538 
451.395394  	105.634282 
452.823860  	105.767696 
454.252327  	105.417479 
455.680793  	105.156645 
457.109260  	106.080940 
458.537726  	107.288462 
459.966192  	107.359497 
461.394659  	106.732382 
462.823125  	106.070935 
464.251592  	106.255892 
465.680058  	106.422346 
467.108525  	105.948019 
468.536991  	106.049082 
469.965458  	106.957381 
471.393924  	107.515386 
472.822390  	106.678754 
474.250857  	105.384889 
475.679323  	104.881637 
477.107790  	104.306225 
478.536256  	103.454851 
479.964723  	103.507051 
481.393189  	104.311862 
482.821655  	104.612183 
484.250122  	104.029722 
485.678588  	103.369056 
487.107055  	103.595202 
488.535521  	104.270352 
489.963988  	104.529015 
491.392454  	104.569119 
492.820921  	104.705423 
494.249387  	104.764698 
495.677853  	104.707253 
497.106320  	104.230276 
498.534786  	103.782762 
499.963253  	104.108873 
501.391719  	104.471025 
502.820186  	104.154748 
504.248652  	104.031452 
505.677118  	104.122026 
507.105585  	103.633248 
508.534051  	102.850052 
509.962518  	102.710203 
511.390984  	103.163900 
512.819451  	103.415714 
514.247917  	103.369890 
515.676384  	103.387102 
517.104850  	103.252719 
518.533316  	103.097849 
519.961783  	103.248090 
521.390249  	103.302809 
522.818716  	103.258555 
524.247182  	103.247345 
525.675649  	102.853598 
527.104115  	102.478724 
528.532581  	102.786792 
529.961048  	103.085648 
531.389514  	102.796181 
532.817981  	102.415853 
534.246447  	102.374778 
535.674914  	102.484724 
537.103380  	102.529962 
538.531846  	102.537180 
539.960313  	102.619691 
541.388779  	102.716963 
542.817246  	102.597348 
544.245712  	102.473792 
545.674179  	102.746157 
547.102645  	102.985677 
548.531112  	102.738598 
549.959578  	102.577022 
551.388044  	102.836016 
552.816511  	103.064204 
554.244977  	103.092079 
555.673444  	103.114405 
557.101910  	103.221831 
558.530377  	103.262032 
559.958843  	103.162765 
561.387309  	103.212414 
562.815776  	103.386699 
564.244242  	103.293903 
565.672709  	103.067914 
567.101175  	102.970870 
568.529642  	102.862255 
569.958108  	102.723274 
571.386575  	102.719732 
572.815041  	102.875989 
574.243507  	102.986748 
575.671974  	102.819974 
577.100440  	102.639858 
578.528907  	102.752272 
579.957373  	102.875874 
581.385840  	102.930115 
582.814306  	103.074012 
584.242772  	103.117460 
585.671239  	103.037392 
587.099705  	103.123247 
588.528172  	103.285966 
589.956638  	103.299785 
591.385105  	103.180284 
592.813571  	102.969719 
594.242037  	102.836371 
595.670504  	102.955097 
597.098970  	103.101202 
598.527437  	102.980213 
599.955903  	102.805951 
601.384370  	102.833586 
602.812836  	102.891492 
604.241303  	102.848195 
605.669769  	102.774401 
607.098235  	102.770765 
608.526702  	102.848338 
609.955168  	102.947227 
611.383635  	102.820239 
612.812101  	102.716693 
614.240568  	102.690615 
615.669034  	102.562797 
617.097500  	102.450925 
618.525967  	102.502668 
619.954433  	102.546235 
621.382900  	102.542919 
622.811366  	102.546001 
624.239833  	102.546444 
625.668299  	102.551660 
627.096766  	102.607836 
628.525232  	102.629657 
629.953698  	102.655574 
631.382165  	102.722941 
632.810631  	102.740355 
634.239098  	102.615464 
635.667564  	102.556751 
637.096031  	102.637408 
638.524497  	102.646402 
639.952963  	102.563883 
641.381430  	102.510574 
642.809896  	102.630346 
644.238363  	102.673302 
645.666829  	102.614681 
647.095296  	102.519216 
648.523762  	102.645275 
649.952229  	102.770523 
651.380695  	102.781628 
652.809161  	102.866433 
654.237628  	103.008163 
655.666094  	103.094876 
657.094561  	103.096146 
658.523027  	103.023368 
659.951494  	102.988834 
661.379960  	102.929517 
662.808426  	102.769080 
664.236893  	102.734301 
665.665359  	102.874283 
667.093826  	102.866660 
668.522292  	102.710642 
669.950759  	102.651941 
671.379225  	102.638124 
672.807691  	102.559620 
674.236158  	102.581710 
675.664624  	102.670748 
677.093091  	102.781861 
678.521557  	102.853253 
679.950024  	102.780700 
681.378490  	102.678711 
682.806957  	102.685478 
684.235423  	102.701297 
685.663889  	102.700995 
687.092356  	102.761173 
688.520822  	102.767598 
689.949289  	102.737265 
691.377755  	102.708719 
692.806222  	102.621058 
694.234688  	102.529081 
695.663154  	102.551248 
697.091621  	102.608774 
698.520087  	102.622072 
699.948554  	102.632075 
701.377020  	102.681147 
702.805487  	102.720980 
704.233953  	102.748812 
705.662420  	102.764206 
707.090886  	102.751278 
708.519352  	102.739105 
709.947819  	102.833465 
711.376285  	102.890602 
712.804752  	102.791440 
714.233218  	102.683616 
715.661685  	102.647522 
717.090151  	102.665968 
718.518617  	102.678357 
719.947084  	102.606956 
721.375550  	102.511787 
722.804017  	102.515022 
724.232483  	102.611845 
725.660950  	102.747200 
727.089416  	102.966249 
728.517883  	103.019391 
729.946349  	102.961907 
731.374815  	102.889651 
732.803282  	102.947317 
734.231748  	103.068030 
735.660215  	103.057765 
737.088681  	102.965375 
738.517148  	102.925804 
739.945614  	102.902905 
741.374080  	102.910291 
742.802547  	102.947273 
744.231013  	102.936361 
745.659480  	102.930107 
747.087946  	102.976648 
748.516413  	102.989981 
749.944879  	102.967566 
751.373345  	103.020036 
752.801812  	103.111829 
754.230278  	103.104532 
755.658745  	103.060611 
757.087211  	103.086981 
758.515678  	103.100650 
759.944144  	103.069062 
761.372611  	103.053403 
762.801077  	103.039926 
764.229543  	103.046107 
765.658010  	103.096327 
767.086476  	103.104630 
768.514943  	103.049343 
769.943409  	103.047251 
771.371876  	103.101658 
772.800342  	103.061641 
774.228808  	102.952592 
775.657275  	102.900298 
777.085741  	102.824083 
778.514208  	102.734042 
779.942674  	102.756073 
781.371141  	102.751028 
782.799607  	102.681116 
784.228074  	102.735459 
785.656540  	102.809144 
787.085006  	102.778805 
788.513473  	102.806446 
789.941939  	102.892243 
791.370406  	102.887222 
792.798872  	102.809787 
794.227339  	102.740215 
795.655805  	102.668156 
797.084271  	102.569918 
798.512738  	102.533723 
799.941204  	102.608035 
801.369671  	102.647239 
802.798137  	102.599275 
804.226604  	102.585889 
805.655070  	102.611700 
807.083537  	102.607968 
808.512003  	102.595487 
809.940469  	102.602241 
811.368936  	102.619041 
812.797402  	102.639036 
814.225869  	102.651412 
815.654335  	102.628148 
817.082802  	102.585721 
818.511268  	102.580348 
819.939734  	102.575393 
821.368201  	102.519787 
822.796667  	102.502711 
824.225134  	102.566493 
825.653600  	102.574344 
827.082067  	102.473457 
828.510533  	102.421596 
829.938999  	102.505249 
831.367466  	102.586021 
832.795932  	102.562680 
834.224399  	102.526974 
835.652865  	102.528691 
837.081332  	102.494682 
838.509798  	102.450272 
839.938265  	102.481716 
841.366731  	102.509000 
842.795197  	102.457509 
844.223664  	102.433443 
845.652130  	102.447787 
847.080597  	102.408605 
848.509063  	102.371872 
849.937530  	102.362267 
851.365996  	102.311057 
852.794462  	102.271521 
854.222929  	102.277994 
855.651395  	102.253662 
857.079862  	102.193365 
858.508328  	102.153474 
859.936795  	102.147201 
861.365261  	102.136512 
862.793728  	102.108127 
864.222194  	102.118111 
865.650660  	102.175640 
867.079127  	102.217012 
868.507593  	102.198148 
869.936060  	102.119968 
871.364526  	102.065983 
872.792993  	102.086533 
874.221459  	102.099970 
875.649925  	102.094516 
877.078392  	102.112767 
878.506858  	102.096128 
879.935325  	102.065938 
881.363791  	102.090705 
882.792258  	102.084601 
884.220724  	102.027024 
885.649190  	102.027907 
887.077657  	102.072602 
888.506123  	102.103793 
889.934590  	102.120128 
891.363056  	102.082528 
892.791523  	102.044148 
894.219989  	102.071086 
895.648456  	102.032032 
897.076922  	101.921047 
898.505388  	101.911327 
899.933855  	101.949933 
901.362321  	101.922817 
902.790788  	101.856804 
904.219254  	101.760297 
905.647721  	101.683445 
907.076187  	101.643345 
908.504653  	101.553634 
909.933120  	101.459697 
911.361586  	101.401865 
912.790053  	101.315862 
914.218519  	101.244153 
915.646986  	101.207421 
917.075452  	101.177935 
918.503919  	101.215570 
919.932385  	101.289006 
921.360851  	101.308182 
922.789318  	101.308619 
924.217784  	101.327882 
925.646251  	101.331451 
927.074717  	101.343542 
928.503184  	101.427977 
929.931650  	101.502292 
931.360116  	101.444039 
932.788583  	101.353788 
934.217049  	101.350407 
935.645516  	101.375772 
937.073982  	101.392881 
938.502449  	101.393756 
939.930915  	101.367211 
941.359382  	101.376452 
942.787848  	101.419894 
944.216314  	101.381780 
945.644781  	101.231973 
947.073247  	101.125139 
948.501714  	101.154992 
949.930180  	101.138623 
951.358647  	101.009520 
952.787113  	100.946564 
954.215579  	100.897475 
955.644046  	100.747584 
957.072512  	100.603402 
958.500979  	100.488096 
959.929445  	100.390266 
961.357912  	100.345501 
962.786378  	100.287430 
964.214844  	100.229818 
965.643311  	100.224032 
967.071777  	100.198667 
968.500244  	100.169980 
969.928710  	100.202971 
971.357177  	100.239302 
972.785643  	100.228379 
974.214110  	100.213737 
975.642576  	100.230555 
977.071042  	100.231932 
978.499509  	100.203883 
979.927975  	100.184299 
981.356442  	100.118501 
982.784908  	99.983984 
984.213375  	99.844903 
985.641841  	99.694185 
987.070307  	99.548481 
988.498774  	99.452851 
989.927240  	99.366769 
991.355707  	99.260545 
992.784173  	99.117798 
994.212640  	98.955445 
995.641106  	98.871731 
997.069573  	98.842764 
998.498039  	98.753346 
999.926505  	98.630990 
1001.354972  	98.543070 
1002.783438  	98.467735 
1004.211905  	98.371748 
1005.640371  	98.264423 
1007.068838  	98.150565 
1008.497304  	98.008180 
1009.925770  	97.875569 
1011.354237  	97.769872 
1012.782703  	97.582274 
1014.211170  	97.330415 
1015.639636  	97.158265 
1017.068103  	97.002395 
1018.496569  	96.780225 
1019.925036  	96.621873 
1021.353502  	96.532688 
1022.781968  	96.386558 
1024.210435  	96.229170 
1025.638901  	96.102211 
1027.067368  	95.953374 
1028.495834  	95.814874 
1029.924301  	95.694330 
1031.352767  	95.564265 
1032.781233  	95.468178 
1034.209700  	95.383808 
1035.638166  	95.266226 
1037.066633  	95.155531 
1038.495099  	95.068041 
1039.923566  	95.016256 
1041.352032  	94.998799 
1042.780498  	94.939758 
1044.208965  	94.846457 
1045.637431  	94.795411 
1047.065898  	94.747162 
1048.494364  	94.648775 
1049.922831  	94.535431 
1051.351297  	94.427244 
1052.779764  	94.334838 
1054.208230  	94.305841 
1055.636696  	94.316475 
1057.065163  	94.270761 
1058.493629  	94.189519 
1059.922096  	94.159743 
1061.350562  	94.156299 
1062.779029  	94.137631 
1064.207495  	94.142075 
1065.635961  	94.190801 
1067.064428  	94.237321 
1068.492894  	94.240625 
1069.921361  	94.226572 
1071.349827  	94.232751 
1072.778294  	94.222843 
1074.206760  	94.153765 
1075.635227  	94.096208 
1077.063693  	94.121346 
1078.492159  	94.182045 
1079.920626  	94.266800 
1081.349092  	94.387199 
1082.777559  	94.460049 
1084.206025  	94.522482 
1085.634492  	94.652337 
1087.062958  	94.763742 
1088.491424  	94.883447 
1089.919891  	95.052280 
1091.348357  	95.167052 
1092.776824  	95.288954 
1094.205290  	95.434817 
1095.633757  	95.497932 
1097.062223  	95.579750 
1098.490690  	95.702221 
1099.919156  	95.752129 
1101.347622  	95.794146 
1102.776089  	95.866397 
1104.204555  	95.934161 
1105.633022  	95.998910 
1107.061488  	96.022168 
1108.489955  	96.062335 
1109.918421  	96.193254 
1111.346887  	96.306796 
1112.775354  	96.325328 
1114.203820  	96.308189 
1115.632287  	96.343032 
1117.060753  	96.443161 
1118.489220  	96.515408 
1119.917686  	96.547128 
1121.346152  	96.623487 
1122.774619  	96.735930 
1124.203085  	96.834057 
1125.631552  	96.927610 
1127.060018  	97.047089 
1128.488485  	97.163507 
1129.916951  	97.231961 
1131.345418  	97.318465 
1132.773884  	97.443115 
1134.202350  	97.516222 
1135.630817  	97.570534 
1137.059283  	97.653473 
1138.487750  	97.692049 
1139.916216  	97.692985 
1141.344683  	97.700525 
1142.773149  	97.669428 
1144.201615  	97.603306 
1145.630082  	97.558164 
1147.058548  	97.525104 
1148.487015  	97.475020 
1149.915481  	97.413006 
1151.343948  	97.356355 
1152.772414  	97.297748 
1154.200881  	97.225852 
1155.629347  	97.183609 
1157.057813  	97.198276 
1158.486280  	97.215365 
1159.914746  	97.198129 
1161.343213  	97.189254 
1162.771679  	97.221343 
1164.200146  	97.253328 
1165.628612  	97.265620 
1167.057078  	97.302886 
1168.485545  	97.357496 
1169.914011  	97.390433 
1171.342478  	97.423479 
1172.770944  	97.480638 
1174.199411  	97.548121 
1175.627877  	97.605085 
1177.056344  	97.667123 
1178.484810  	97.760428 
1179.913276  	97.828968 
1181.341743  	97.850197 
1182.770209  	97.897385 
1184.198676  	97.928834 
1185.627142  	97.884642 
1187.055609  	97.855169 
1188.484075  	97.851946 
1189.912541  	97.807590 
1191.341008  	97.746323 
1192.769474  	97.671661 
1194.197941  	97.591670 
1195.626407  	97.544517 
1197.054874  	97.478717 
1198.483340  	97.374053 
1199.911806  	97.267725 
1201.340273  	97.154551 
1202.768739  	97.061718 
1204.197206  	96.988475 
1205.625672  	96.881512 
1207.054139  	96.759452 
1208.482605  	96.642802 
1209.911072  	96.534040 
1211.339538  	96.459334 
1212.768004  	96.388706 
1214.196471  	96.294896 
1215.624937  	96.202541 
1217.053404  	96.116843 
1218.481870  	96.057211 
1219.910337  	96.028319 
1221.338803  	95.978525 
1222.767269  	95.916345 
1224.195736  	95.883233 
1225.624202  	95.849003 
1227.052669  	95.808195 
1228.481135  	95.797460 
1229.909602  	95.801216 
1231.338068  	95.804377 
1232.766535  	95.807643 
1234.195001  	95.797575 
1235.623467  	95.803208 
1237.051934  	95.841136 
1238.480400  	95.872680 
1239.908867  	95.906795 
1241.337333  	95.972004 
1242.765800  	96.045479 
1244.194266  	96.107288 
1245.622732  	96.167213 
1247.051199  	96.237502 
1248.479665  	96.317941 
1249.908132  	96.414377 
1251.336598  	96.528027 
1252.765065  	96.620346 
1254.193531  	96.685409 
1255.621997  	96.773300 
1257.050464  	96.885619 
1258.478930  	96.985819 
1259.907397  	97.076177 
1261.335863  	97.168997 
1262.764330  	97.254670 
1264.192796  	97.330705 
1265.621263  	97.391098 
1267.049729  	97.427248 
1268.478195  	97.481258 
1269.906662  	97.558948 
1271.335128  	97.596489 
1272.763595  	97.631624 
1274.192061  	97.710519 
1275.620528  	97.751303 
1277.048994  	97.752298 
1278.477460  	97.779358 
1279.905927  	97.812637 
1281.334393  	97.847803 
1282.762860  	97.876305 
1284.191326  	97.871838 
1285.619793  	97.891503 
1287.048259  	97.931128 
1288.476726  	97.933969 
1289.905192  	97.956864 
1291.333658  	98.000756 
1292.762125  	98.006035 
1294.190591  	98.017389 
1295.619058  	98.045419 
1297.047524  	98.051338 
1298.475991  	98.060420 
1299.904457  	98.073370 
1301.332923  	98.079523 
1302.761390  	98.091503 
1304.189856  	98.100476 
1305.618323  	98.100989 
1307.046789  	98.108911 
1308.475256  	98.129599 
1309.903722  	98.178012 
1311.332189  	98.215434 
1312.760655  	98.198430 
1314.189121  	98.203063 
1315.617588  	98.252982 
1317.046054  	98.275997 
1318.474521  	98.297483 
1319.902987  	98.337818 
1321.331454  	98.363589 
1322.759920  	98.403088 
1324.188386  	98.443039 
1325.616853  	98.460125 
1327.045319  	98.476583 
1328.473786  	98.480672 
1329.902252  	98.479685 
1331.330719  	98.486414 
1332.759185  	98.478797 
1334.187651  	98.480326 
1335.616118  	98.496131 
1337.044584  	98.504306 
1338.473051  	98.486424 
1339.901517  	98.385569 
1341.329984  	98.340604 
1342.758450  	98.402546 
1344.186917  	98.421686 
1345.615383  	98.408913 
1347.043849  	98.437968 
1348.472316  	98.411891 
1349.900782  	98.360602 
1351.329249  	98.321035 
1352.757715  	98.280933 
1354.186182  	98.219832 
1355.614648  	98.170982 
1357.043114  	98.150962 
1358.471581  	98.146229 
1359.900047  	98.107572 
1361.328514  	98.036457 
1362.756980  	97.876605 
1364.185447  	97.741088 
1365.613913  	97.726167 
1367.042380  	97.700661 
1368.470846  	97.606774 
1369.899312  	97.540251 
1371.327779  	97.532524 
1372.756245  	97.525557 
1374.184712  	97.412811 
1375.613178  	97.265952 
1377.041645  	97.232685 
1378.470111  	97.199157 
1379.898577  	97.149932 
1381.327044  	97.140393 
1382.755510  	97.080168 
1384.183977  	97.042018 
1385.612443  	97.108633 
1387.040910  	97.007229 
1388.469376  	96.888151 
1389.897843  	96.935578 
1391.326309  	97.034637 
1392.754775  	97.196985 
1394.183242  	97.221274 
1395.611708  	97.042659 
1397.040175  	97.118095 
1398.468641  	97.208143 
1399.897108  	97.084581 
1401.325574  	97.121076 
1402.754040  	97.271462 
1404.182507  	97.325923 
1405.610973  	97.322598 
1407.039440  	97.367650 
1408.467906  	97.442898 
1409.896373  	97.464296 
1411.324839  	97.430724 
1412.753305  	97.419373 
1414.181772  	97.449118 
1415.610238  	97.497310 
1417.038705  	97.561674 
1418.467171  	97.558658 
1419.895638  	97.426938 
1421.324104  	97.446853 
1422.752571  	97.537928 
1424.181037  	97.501027 
1425.609503  	97.456297 
1427.037970  	97.525789 
1428.466436  	97.550267 
1429.894903  	97.445265 
1431.323369  	97.358020 
1432.751836  	97.296276 
1434.180302  	97.322206 
1435.608768  	97.345922 
1437.037235  	97.114160 
1438.465701  	97.014268 
1439.894168  	97.068234 
1441.322634  	97.086979 
1442.751101  	97.049435 
1444.179567  	96.999425 
1445.608034  	96.992038 
1447.036500  	96.965568 
1448.464966  	96.727439 
1449.893433  	96.667943 
1451.321899  	96.735095 
1452.750366  	96.648767 
1454.178832  	96.753350 
1455.607299  	97.092357 
1457.035765  	96.955697 
1458.464231  	96.683427 
1459.892698  	96.709191 
1461.321164  	96.807279 
1462.749631  	96.999615 
1464.178097  	97.044796 
1465.606564  	96.839109 
1467.035030  	96.819571 
1468.463497  	96.972574 
1469.891963  	97.260904 
1471.320429  	97.524896 
1472.748896  	97.426689 
1474.177362  	97.488521 
1475.605829  	97.652973 
1477.034295  	97.596615 
1478.462762  	97.594577 
1479.891228  	97.659222 
1481.319694  	97.522280 
1482.748161  	97.369082 
1484.176627  	97.365347 
1485.605094  	97.287200 
1487.033560  	97.096866 
1488.462027  	96.960120 
1489.890493  	96.733381 
1491.318959  	96.395513 
1492.747426  	96.325164 
1494.175892  	96.411674 
1495.604359  	96.278374 
1497.032825  	95.788787 
1498.461292  	95.494517 
1499.889758  	95.307480 
1501.318225  	95.095064 
1502.746691  	95.013818 
1504.175157  	95.162880 
1505.603624  	95.362832 
1507.032090  	94.510006 
1508.460557  	93.864015 
1509.889023  	93.893063 
1511.317490  	93.795074 
1512.745956  	93.550701 
1514.174422  	93.516218 
1515.602889  	93.577903 
1517.031355  	93.143197 
1518.459822  	92.977980 
1519.888288  	93.302467 
1521.316755  	92.954960 
1522.745221  	92.404365 
1524.173688  	92.679914 
1525.602154  	92.731749 
1527.030620  	92.522902 
1528.459087  	92.469754 
1529.887553  	92.415341 
1531.316020  	92.547705 
1532.744486  	92.593872 
1534.172953  	91.997001 
1535.601419  	92.043952 
1537.029885  	92.514157 
1538.458352  	92.969752 
1539.886818  	92.778487 
1541.315285  	92.363090 
1542.743751  	92.607029 
1544.172218  	92.779808 
1545.600684  	92.690126 
1547.029151  	92.940829 
1548.457617  	93.320267 
1549.886083  	93.437401 
1551.314550  	93.634521 
1552.743016  	94.090577 
1554.171483  	94.384580 
1555.599949  	94.597156 
1557.028416  	95.243385 
1558.456882  	95.802627 
1559.885348  	94.873873 
1561.313815  	95.235608 
1562.742281  	95.613570 
1564.170748  	95.792790 
1565.599214  	95.806236 
1567.027681  	96.010733 
1568.456147  	96.296290 
1569.884613  	96.172225 
1571.313080  	96.075249 
1572.741546  	96.317892 
1574.170013  	96.489585 
1575.598479  	96.585036 
1577.026946  	96.477197 
1578.455412  	96.471078 
1579.883879  	96.563820 
1581.312345  	96.579166 
1582.740811  	96.565279 
1584.169278  	96.618863 
1585.597744  	96.634123 
1587.026211  	96.643314 
1588.454677  	96.592478 
1589.883144  	96.482062 
1591.311610  	96.415284 
1592.740076  	96.336067 
1594.168543  	96.225423 
1595.597009  	96.156216 
1597.025476  	96.049204 
1598.453942  	95.948538 
1599.882409  	95.815198 
1601.310875  	95.657108 
1602.739342  	95.522608 
1604.167808  	95.374259 
1605.596274  	95.206970 
1607.024741  	95.063034 
1608.453207  	94.875461 
1609.881674  	94.681652 
1611.310140  	94.503536 
1612.738607  	94.267194 
1614.167073  	94.141340 
1615.595539  	94.024324 
1617.024006  	93.406928 
1618.452472  	92.967368 
1619.880939  	92.791159 
1621.309405  	92.659561 
1622.737872  	92.357199 
1624.166338  	91.710987 
1625.594804  	91.398970 
1627.023271  	91.168592 
1628.451737  	90.631543 
1629.880204  	90.288192 
1631.308670  	90.086617 
1632.737137  	90.005842 
1634.165603  	90.209168 
1635.594070  	89.736926 
1637.022536  	88.897588 
1638.451002  	89.039940 
1639.879469  	89.067223 
1641.307935  	88.987312 
1642.736402  	89.028941 
1644.164868  	89.176144 
1645.593335  	89.486736 
1647.021801  	89.196088 
1648.450267  	88.693845 
1649.878734  	89.080788 
1651.307200  	89.696061 
1652.735667  	89.907089 
1654.164133  	89.023626 
1655.592600  	89.265943 
1657.021066  	89.769225 
1658.449533  	90.080284 
1659.877999  	90.289029 
1661.306465  	90.751243 
1662.734932  	91.016749 
1664.163398  	91.166418 
1665.591865  	91.632347 
1667.020331  	91.995648 
1668.448798  	92.348244 
1669.877264  	92.675647 
1671.305730  	92.843540 
1672.734197  	93.181933 
1674.162663  	93.544881 
1675.591130  	93.611416 
1677.019596  	93.838487 
1678.448063  	94.204504 
1679.876529  	94.451443 
1681.304996  	94.749593 
1682.733462  	95.164967 
1684.161928  	95.304504 
1685.590395  	95.335927 
1687.018861  	95.631720 
1688.447328  	95.955073 
1689.875794  	96.160454 
1691.304261  	96.352352 
1692.732727  	96.647743 
1694.161193  	96.893377 
1695.589660  	97.027150 
1697.018126  	97.065735 
1698.446593  	97.310446 
1699.875059  	97.573927 
1701.303526  	97.521914 
1702.731992  	97.697247 
1704.160458  	98.056411 
1705.588925  	98.065238 
1707.017391  	98.046807 
1708.445858  	98.189619 
1709.874324  	98.248045 
1711.302791  	98.334843 
1712.731257  	98.478715 
1714.159724  	98.554691 
1715.588190  	98.689671 
1717.016656  	98.861000 
1718.445123  	98.813123 
1719.873589  	98.848001 
1721.302056  	98.926348 
1722.730522  	98.976458 
1724.158989  	98.986752 
1725.587455  	99.002926 
1727.015921  	99.051868 
1728.444388  	98.980971 
1729.872854  	98.757400 
1731.301321  	98.697185 
1732.729787  	98.877927 
1734.158254  	98.653617 
1735.586720  	98.294617 
1737.015187  	98.423340 
1738.443653  	98.544775 
1739.872119  	98.379718 
1741.300586  	98.404477 
1742.729052  	98.520745 
1744.157519  	98.458307 
1745.585985  	98.561458 
1747.014452  	98.805449 
1748.442918  	98.972548 
1749.871384  	99.229237 
1751.299851  	99.501508 
1752.728317  	99.741938 
1754.156784  	100.077411 
1755.585250  	100.306453 
1757.013717  	100.445593 
1758.442183  	100.584498 
1759.870650  	100.737834 
1761.299116  	100.852193 
1762.727582  	100.889679 
1764.156049  	100.947350 
1765.584515  	101.107786 
1767.012982  	101.208900 
1768.441448  	101.191789 
1769.869915  	101.270110 
1771.298381  	101.301655 
1772.726847  	101.171577 
1774.155314  	101.169082 
1775.583780  	101.157384 
1777.012247  	101.143339 
1778.440713  	101.205894 
1779.869180  	101.212821 
1781.297646  	101.162508 
1782.726112  	101.192267 
1784.154579  	101.205126 
1785.583045  	101.163337 
1787.011512  	101.161598 
1788.439978  	101.202626 
1789.868445  	101.226067 
1791.296911  	101.222572 
1792.725378  	101.206702 
1794.153844  	101.193905 
1795.582310  	101.180379 
1797.010777  	101.179916 
1798.439243  	101.179083 
1799.867710  	101.188639 
1801.296176  	101.170377 
1802.724643  	101.170060 
1804.153109  	101.199459 
1805.581575  	101.196003 
1807.010042  	101.158921 
1808.438508  	101.189550 
1809.866975  	101.177656 
1811.295441  	101.183493 
1812.723908  	101.235376 
1814.152374  	101.227183 
1815.580841  	101.226891 
1817.009307  	101.219558 
1818.437773  	101.192265 
1819.866240  	101.185305 
1821.294706  	101.161474 
1822.723173  	101.192443 
1824.151639  	101.220835 
1825.580106  	101.145876 
1827.008572  	101.154495 
1828.437038  	101.227966 
1829.865505  	101.163062 
1831.293971  	101.082463 
1832.722438  	101.080804 
1834.150904  	101.084479 
1835.579371  	101.096645 
1837.007837  	101.075403 
1838.436304  	101.066620 
1839.864770  	101.109787 
1841.293236  	101.113338 
1842.721703  	101.117801 
1844.150169  	101.094150 
1845.578636  	101.018749 
1847.007102  	101.022148 
1848.435569  	101.025380 
1849.864035  	101.009456 
1851.292501  	101.066099 
1852.720968  	101.084007 
1854.149434  	101.040142 
1855.577901  	101.042690 
1857.006367  	101.065460 
1858.434834  	101.057197 
1859.863300  	100.987718 
1861.291766  	100.929914 
1862.720233  	100.983771 
1864.148699  	101.001412 
1865.577166  	100.988208 
1867.005632  	101.056963 
1868.434099  	101.054735 
1869.862565  	100.964394 
1871.291032  	100.923680 
1872.719498  	100.901518 
1874.147964  	100.947353 
1875.576431  	101.001315 
1877.004897  	100.990646 
1878.433364  	100.974743 
1879.861830  	100.923525 
1881.290297  	100.868046 
1882.718763  	100.864863 
1884.147229  	100.857738 
1885.575696  	100.896679 
1887.004162  	100.993496 
1888.432629  	101.017812 
1889.861095  	100.908768 
1891.289562  	100.823718 
1892.718028  	100.869771 
1894.146495  	100.892982 
1895.574961  	100.873245 
1897.003427  	100.889490 
1898.431894  	100.900589 
1899.860360  	100.836484 
1901.288827  	100.834040 
1902.717293  	100.892271 
1904.145760  	100.950833 
1905.574226  	100.971875 
1907.002692  	100.908895 
1908.431159  	100.851326 
1909.859625  	100.887151 
1911.288092  	100.967262 
1912.716558  	101.016570 
1914.145025  	100.984903 
1915.573491  	100.944710 
1917.001957  	100.908584 
1918.430424  	100.806135 
1919.858890  	100.744355 
1921.287357  	100.847492 
1922.715823  	100.852581 
1924.144290  	100.812353 
1925.572756  	100.860692 
1927.001223  	100.997211 
1928.429689  	101.036331 
1929.858155  	101.066521 
1931.286622  	101.053907 
1932.715088  	100.950506 
1934.143555  	100.887327 
1935.572021  	100.965993 
1937.000488  	100.964849 
1938.428954  	100.965026 
1939.857420  	101.033519 
1941.285887  	100.969981 
1942.714353  	100.879629 
1944.142820  	101.007526 
1945.571286  	101.106735 
1946.999753  	101.046335 
1948.428219  	100.951465 
1949.856686  	100.859452 
1951.285152  	100.820422 
1952.713618  	100.775018 
1954.142085  	100.647422 
1955.570551  	100.640959 
1956.999018  	100.915903 
1958.427484  	101.186872 
1959.855951  	101.103165 
1961.284417  	101.003767 
1962.712883  	101.149084 
1964.141350  	101.038105 
1965.569816  	100.768205 
1966.998283  	100.805887 
1968.426749  	100.899390 
1969.855216  	100.862724 
1971.283682  	100.809973 
1972.712149  	100.795075 
1974.140615  	100.852458 
1975.569081  	100.963270 
1976.997548  	100.989530 
1978.426014  	100.785323 
1979.854481  	100.510084 
1981.282947  	100.512653 
1982.711414  	100.645339 
1984.139880  	100.646812 
1985.568346  	100.661972 
1986.996813  	100.698528 
1988.425279  	100.678295 
1989.853746  	100.697400 
1991.282212  	100.728995 
1992.710679  	100.707550 
1994.139145  	100.647293 
1995.567611  	100.586284 
1996.996078  	100.611960 
1998.424544  	100.738494 
1999.853011  	100.860444 
2001.281477  	100.875493 
2002.709944  	100.691863 
2004.138410  	100.637540 
2005.566877  	100.786537 
2006.995343  	100.797979 
2008.423809  	100.839510 
2009.852276  	100.866868 
2011.280742  	100.711790 
2012.709209  	100.728151 
2014.137675  	100.720958 
2015.566142  	100.446620 
2016.994608  	100.308638 
2018.423074  	100.364775 
2019.851541  	100.533568 
2021.280007  	100.778315 
2022.708474  	100.678722 
2024.136940  	100.353097 
2025.565407  	100.199181 
2026.993873  	100.228142 
2028.422340  	100.404483 
2029.850806  	100.549752 
2031.279272  	100.590930 
2032.707739  	100.561935 
2034.136205  	100.363717 
2035.564672  	100.341565 
2036.993138  	100.582391 
2038.421605  	100.647442 
2039.850071  	100.647326 
2041.278537  	100.644921 
2042.707004  	100.564582 
2044.135470  	100.612540 
2045.563937  	100.585402 
2046.992403  	100.359597 
2048.420870  	100.232347 
2049.849336  	100.210434 
2051.277803  	100.285010 
2052.706269  	100.495272 
2054.134735  	100.585371 
2055.563202  	100.449968 
2056.991668  	100.282971 
2058.420135  	100.292007 
2059.848601  	100.477967 
2061.277068  	100.596513 
2062.705534  	100.566236 
2064.134000  	100.481604 
2065.562467  	100.386382 
2066.990933  	100.387355 
2068.419400  	100.463001 
2069.847866  	100.466866 
2071.276333  	100.439577 
2072.704799  	100.403048 
2074.133265  	100.343535 
2075.561732  	100.372505 
2076.990198  	100.414989 
2078.418665  	100.317173 
2079.847131  	100.227608 
2081.275598  	100.292769 
2082.704064  	100.368072 
2084.132531  	100.342079 
2085.560997  	100.297718 
2086.989463  	100.298062 
2088.417930  	100.317305 
2089.846396  	100.306759 
2091.274863  	100.275228 
2092.703329  	100.305949 
2094.131796  	100.331074 
2095.560262  	100.227326 
2096.988728  	100.216589 
2098.417195  	100.397398 
2099.845661  	100.436332 
2101.274128  	100.365726 
2102.702594  	100.482494 
2104.131061  	100.569432 
2105.559527  	100.391864 
2106.987994  	100.257809 
2108.416460  	100.384177 
2109.844926  	100.530799 
2111.273393  	100.523300 
2112.701859  	100.471808 
2114.130326  	100.449908 
2115.558792  	100.434545 
2116.987259  	100.426388 
2118.415725  	100.477831 
2119.844191  	100.588942 
2121.272658  	100.620707 
2122.701124  	100.519170 
2124.129591  	100.418986 
2125.558057  	100.397890 
2126.986524  	100.460754 
2128.414990  	100.503324 
2129.843457  	100.435744 
2131.271923  	100.469256 
2132.700389  	100.583240 
2134.128856  	100.468286 
2135.557322  	100.340161 
2136.985789  	100.367405 
2138.414255  	100.316126 
2139.842722  	100.350098 
2141.271188  	100.511084 
2142.699654  	100.514938 
2144.128121  	100.508715 
2145.556587  	100.542896 
2146.985054  	100.528945 
2148.413520  	100.626556 
2149.841987  	100.677254 
2151.270453  	100.619148 
2152.698919  	100.706272 
2154.127386  	100.754569 
2155.555852  	100.574057 
2156.984319  	100.345375 
2158.412785  	100.153415 
2159.841252  	99.989475 
2161.269718  	99.919260 
2162.698185  	100.021658 
2164.126651  	100.222025 
2165.555117  	100.113688 
2166.983584  	99.897959 
2168.412050  	100.017932 
2169.840517  	100.200991 
2171.268983  	100.225566 
2172.697450  	100.171241 
2174.125916  	100.096286 
2175.554382  	100.193821 
2176.982849  	100.251950 
2178.411315  	99.972167 
2179.839782  	99.875336 
2181.268248  	100.143994 
2182.696715  	100.186961 
2184.125181  	100.029689 
2185.553648  	100.003751 
2186.982114  	100.039476 
2188.410580  	100.139122 
2189.839047  	100.190481 
2191.267513  	100.018663 
2192.695980  	99.932636 
2194.124446  	100.099432 
2195.552913  	100.222810 
2196.981379  	100.222051 
2198.409845  	100.180783 
2199.838312  	100.086584 
2201.266778  	100.073128 
2202.695245  	100.146478 
2204.123711  	100.108363 
2205.552178  	100.000375 
2206.980644  	99.928460 
2208.409111  	99.895454 
2209.837577  	99.986807 
2211.266043  	100.108287 
2212.694510  	100.033943 
2214.122976  	99.875171 
2215.551443  	99.878156 
2216.979909  	100.047402 
2218.408376  	100.182093 
2219.836842  	100.122652 
2221.265308  	100.066923 
2222.693775  	100.143680 
2224.122241  	100.114394 
2225.550708  	99.992133 
2226.979174  	99.946251 
2228.407641  	99.892897 
2229.836107  	99.918322 
2231.264573  	100.055652 
2232.693040  	100.069902 
2234.121506  	100.035647 
2235.549973  	100.060019 
2236.978439  	100.041523 
2238.406906  	100.082831 
2239.835372  	100.127946 
2241.263839  	100.040488 
2242.692305  	100.043513 
2244.120771  	100.086968 
2245.549238  	99.974455 
2246.977704  	99.924301 
2248.406171  	99.954270 
2249.834637  	99.920274 
2251.263104  	99.929877 
2252.691570  	99.968946 
2254.120036  	99.970202 
2255.548503  	99.942145 
2256.976969  	99.885609 
2258.405436  	99.863340 
2259.833902  	99.892943 
2261.262369  	99.913413 
2262.690835  	99.981374 
2264.119302  	100.013044 
2265.547768  	99.908474 
2266.976234  	99.860650 
2268.404701  	99.874104 
2269.833167  	99.760439 
2271.261634  	99.663414 
2272.690100  	99.744915 
2274.118567  	99.853597 
2275.547033  	99.831231 
2276.975499  	99.725590 
2278.403966  	99.716961 
2279.832432  	99.827767 
2281.260899  	99.874803 
2282.689365  	99.818427 
2284.117832  	99.792924 
2285.546298  	99.798401 
2286.974764  	99.790928 
2288.403231  	99.822340 
2289.831697  	99.872136 
2291.260164  	99.852295 
2292.688630  	99.812112 
2294.117097  	99.839810 
2295.545563  	99.884651 
2296.974030  	99.853975 
2298.402496  	99.848537 
2299.830962  	99.914615 
2301.259429  	99.930579 
2302.687895  	99.900989 
2304.116362  	99.923275 
2305.544828  	99.950709 
2306.973295  	99.957930 
2308.401761  	99.981278 
2309.830227  	99.961144 
2311.258694  	99.939313 
2312.687160  	100.020026 
2314.115627  	100.074330 
2315.544093  	100.045554 
2316.972560  	100.058126 
2318.401026  	100.054062 
2319.829493  	99.989628 
2321.257959  	99.969646 
2322.686425  	99.951445 
2324.114892  	99.942454 
2325.543358  	100.025977 
2326.971825  	100.103499 
2328.400291  	100.126737 
2329.828758  	100.109888 
2331.257224  	99.998780 
2332.685690  	99.920627 
2334.114157  	99.986169 
2335.542623  	100.039235 
2336.971090  	100.013788 
2338.399556  	99.999276 
2339.828023  	100.019091 
2341.256489  	100.043908 
2342.684956  	100.032374 
2344.113422  	99.977260 
2345.541888  	99.925804 
2346.970355  	99.946991 
2348.398821  	100.042570 
2349.827288  	100.101846 
2351.255754  	100.058345 
2352.684221  	99.978597 
2354.112687  	99.950811 
2355.541153  	99.950179 
2356.969620  	99.958687 
2358.398086  	99.956360 
2359.826553  	99.863135 
2361.255019  	99.696023 
2362.683486  	99.615647 
2364.111952  	99.684557 
2365.540418  	99.729464 
2366.968885  	99.642373 
2368.397351  	99.552196 
2369.825818  	99.482436 
2371.254284  	99.416556 
2372.682751  	99.463321 
2374.111217  	99.538199 
2375.539684  	99.523386 
2376.968150  	99.530527 
2378.396616  	99.582728 
2379.825083  	99.599137 
2381.253549  	99.615824 
2382.682016  	99.641156 
2384.110482  	99.631970 
2385.538949  	99.625892 
2386.967415  	99.635211 
2388.395881  	99.628341 
2389.824348  	99.640362 
2391.252814  	99.672067 
2392.681281  	99.656971 
2394.109747  	99.618483 
2395.538214  	99.605729 
2396.966680  	99.612713 
2398.395147  	99.642224 
2399.823613  	99.681178 
2401.252079  	99.681862 
2402.680546  	99.645908 
2404.109012  	99.636226 
2405.537479  	99.662490 
2406.965945  	99.655380 
2408.394412  	99.627484 
2409.822878  	99.653037 
2411.251344  	99.677676 
2412.679811  	99.617186 
2414.108277  	99.531782 
2415.536744  	99.521946 
2416.965210  	99.567159 
2418.393677  	99.563944 
2419.822143  	99.504660 
2421.250610  	99.470381 
2422.679076  	99.464312 
2424.107542  	99.469403 
2425.536009  	99.509640 
2426.964475  	99.541111 
2428.392942  	99.512759 
2429.821408  	99.468281 
2431.249875  	99.460107 
2432.678341  	99.480371 
2434.106807  	99.499210 
2435.535274  	99.525356 
2436.963740  	99.552447 
2438.392207  	99.510902 
2439.820673  	99.426444 
2441.249140  	99.413396 
2442.677606  	99.459993 
2444.106072  	99.485207 
2445.534539  	99.489088 
2446.963005  	99.484298 
2448.391472  	99.458623 
2449.819938  	99.437230 
2451.248405  	99.439809 
2452.676871  	99.416263 
2454.105338  	99.366395 
2455.533804  	99.386727 
2456.962270  	99.464097 
2458.390737  	99.474460 
2459.819203  	99.420161 
2461.247670  	99.416812 
2462.676136  	99.481096 
2464.104603  	99.488584 
2465.533069  	99.404434 
2466.961535  	99.365008 
2468.390002  	99.391503 
2469.818468  	99.387402 
2471.246935  	99.362224 
2472.675401  	99.334842 
2474.103868  	99.311610 
2475.532334  	99.329845 
2476.960801  	99.338473 
2478.389267  	99.319126 
2479.817733  	99.327348 
2481.246200  	99.329428 
2482.674666  	99.305292 
2484.103133  	99.274322 
2485.531599  	99.239049 
2486.960066  	99.250202 
2488.388532  	99.285419 
2489.816998  	99.291020 
2491.245465  	99.318330 
2492.673931  	99.343865 
2494.102398  	99.329407 
2495.530864  	99.318831 
2496.959331  	99.265151 
2498.387797  	99.180732 
2499.816264  	99.184471 
2501.244730  	99.244238 
2502.673196  	99.286992 
2504.101663  	99.308044 
2505.530129  	99.278989 
2506.958596  	99.236489 
2508.387062  	99.242233 
2509.815529  	99.246614 
2511.243995  	99.198898 
2512.672461  	99.140787 
2514.100928  	99.128014 
2515.529394  	99.158595 
2516.957861  	99.196243 
2518.386327  	99.224574 
2519.814794  	99.245456 
2521.243260  	99.269630 
2522.671726  	99.271982 
2524.100193  	99.206029 
2525.528659  	99.132367 
2526.957126  	99.134835 
2528.385592  	99.158446 
2529.814059  	99.157657 
2531.242525  	99.180680 
2532.670992  	99.203606 
2534.099458  	99.191185 
2535.527924  	99.201593 
2536.956391  	99.200599 
2538.384857  	99.133018 
2539.813324  	99.123642 
2541.241790  	99.161938 
2542.670257  	99.106097 
2544.098723  	99.089078 
2545.527189  	99.167765 
2546.955656  	99.146775 
2548.384122  	99.085688 
2549.812589  	99.095233 
2551.241055  	99.087502 
2552.669522  	99.086998 
2554.097988  	99.094977 
2555.526455  	99.074605 
2556.954921  	99.113503 
2558.383387  	99.127777 
2559.811854  	99.053893 
2561.240320  	99.038043 
2562.668787  	99.026343 
2564.097253  	98.980469 
2565.525720  	99.033986 
2566.954186  	99.070885 
2568.382652  	99.009501 
2569.811119  	99.006081 
2571.239585  	99.033246 
2572.668052  	99.013451 
2574.096518  	99.011165 
2575.524985  	99.012374 
2576.953451  	99.003871 
2578.381918  	99.026063 
2579.810384  	99.021507 
2581.238850  	98.972869 
2582.667317  	98.967182 
2584.095783  	98.993383 
2585.524250  	98.990149 
2586.952716  	98.982229 
2588.381183  	98.976516 
2589.809649  	98.956011 
2591.238115  	98.945129 
2592.666582  	98.925499 
2594.095048  	98.885910 
2595.523515  	98.878406 
2596.951981  	98.898564 
2598.380448  	98.914671 
2599.808914  	98.922077 
2601.237380  	98.904760 
2602.665847  	98.881739 
2604.094313  	98.867654 
2605.522780  	98.852549 
2606.951246  	98.853961 
2608.379713  	98.840090 
2609.808179  	98.795708 
2611.236646  	98.792211 
2612.665112  	98.828023 
2614.093578  	98.859444 
2615.522045  	98.868983 
2616.950511  	98.823602 
2618.378978  	98.779405 
2619.807444  	98.802204 
2621.235911  	98.833010 
2622.664377  	98.827187 
2624.092843  	98.777988 
2625.521310  	98.705313 
2626.949776  	98.694348 
2628.378243  	98.743160 
2629.806709  	98.774652 
2631.235176  	98.784178 
2632.663642  	98.775381 
2634.092109  	98.752717 
2635.520575  	98.745047 
2636.949041  	98.730008 
2638.377508  	98.697246 
2639.805974  	98.700884 
2641.234441  	98.738412 
2642.662907  	98.742514 
2644.091374  	98.716005 
2645.519840  	98.709672 
2646.948306  	98.707068 
2648.376773  	98.691804 
2649.805239  	98.696812 
2651.233706  	98.712029 
2652.662172  	98.714788 
2654.090639  	98.709400 
2655.519105  	98.685415 
2656.947571  	98.666252 
2658.376038  	98.681267 
2659.804504  	98.696508 
2661.232971  	98.693107 
2662.661437  	98.691284 
2664.089904  	98.705347 
2665.518370  	98.724496 
2666.946837  	98.717170 
2668.375303  	98.710224 
2669.803769  	98.732616 
2671.232236  	98.723309 
2672.660702  	98.685418 
2674.089169  	98.681513 
2675.517635  	98.684096 
2676.946102  	98.680992 
2678.374568  	98.686231 
2679.803034  	98.665829 
2681.231501  	98.647741 
2682.659967  	98.659932 
2684.088434  	98.652616 
2685.516900  	98.637770 
2686.945367  	98.640526 
2688.373833  	98.631084 
2689.802300  	98.625017 
2691.230766  	98.616708 
2692.659232  	98.575843 
2694.087699  	98.568085 
2695.516165  	98.611602 
2696.944632  	98.620132 
2698.373098  	98.594988 
2699.801565  	98.588086 
2701.230031  	98.590657 
2702.658497  	98.592392 
2704.086964  	98.590391 
2705.515430  	98.583125 
2706.943897  	98.573274 
2708.372363  	98.546695 
2709.800830  	98.531771 
2711.229296  	98.553157 
2712.657763  	98.552591 
2714.086229  	98.524504 
2715.514695  	98.518818 
2716.943162  	98.511060 
2718.371628  	98.483394 
2719.800095  	98.464905 
2721.228561  	98.460863 
2722.657028  	98.461839 
2724.085494  	98.454363 
2725.513960  	98.453169 
2726.942427  	98.479731 
2728.370893  	98.483135 
2729.799360  	98.438103 
2731.227826  	98.400208 
2732.656293  	98.397119 
2734.084759  	98.413130 
2735.513225  	98.410199 
2736.941692  	98.370774 
2738.370158  	98.347563 
2739.798625  	98.359848 
2741.227091  	98.365241 
2742.655558  	98.357533 
2744.084024  	98.351696 
2745.512491  	98.352453 
2746.940957  	98.353208 
2748.369423  	98.331832 
2749.797890  	98.300962 
2751.226356  	98.302930 
2752.654823  	98.327238 
2754.083289  	98.315127 
2755.511756  	98.281283 
2756.940222  	98.299130 
2758.368688  	98.323245 
2759.797155  	98.285958 
2761.225621  	98.257728 
2762.654088  	98.259401 
2764.082554  	98.243875 
2765.511021  	98.245691 
2766.939487  	98.267400 
2768.367954  	98.267511 
2769.796420  	98.241645 
2771.224886  	98.196117 
2772.653353  	98.184040 
2774.081819  	98.207585 
2775.510286  	98.191159 
2776.938752  	98.169674 
2778.367219  	98.173490 
2779.795685  	98.148931 
2781.224151  	98.134324 
2782.652618  	98.154665 
2784.081084  	98.152556 
2785.509551  	98.134636 
2786.938017  	98.127992 
2788.366484  	98.125274 
2789.794950  	98.119761 
2791.223417  	98.108868 
2792.651883  	98.093952 
2794.080349  	98.063671 
2795.508816  	98.037697 
2796.937282  	98.042973 
2798.365749  	98.038085 
2799.794215  	98.028158 
2801.222682  	98.048012 
2802.651148  	98.052694 
2804.079614  	98.039598 
2805.508081  	98.034026 
2806.936547  	98.017945 
2808.365014  	98.008438 
2809.793480  	97.998295 
2811.221947  	97.969357 
2812.650413  	97.950455 
2814.078879  	97.920470 
2815.507346  	97.887922 
2816.935812  	97.894485 
2818.364279  	97.871667 
2819.792745  	97.814308 
2821.221212  	97.819428 
2822.649678  	97.853694 
2824.078145  	97.834547 
2825.506611  	97.784978 
2826.935077  	97.754926 
2828.363544  	97.750343 
2829.792010  	97.741679 
2831.220477  	97.707571 
2832.648943  	97.665481 
2834.077410  	97.633227 
2835.505876  	97.595443 
2836.934342  	97.553300 
2838.362809  	97.523227 
2839.791275  	97.450634 
2841.219742  	97.323155 
2842.648208  	97.237262 
2844.076675  	97.150611 
2845.505141  	96.976784 
2846.933608  	96.835678 
2848.362074  	96.752285 
2849.790540  	96.603337 
2851.219007  	96.456975 
2852.647473  	96.401356 
2854.075940  	96.378752 
2855.504406  	96.380857 
2856.932873  	96.429649 
2858.361339  	96.501993 
2859.789805  	96.577107 
2861.218272  	96.644798 
2862.646738  	96.697578 
2864.075205  	96.735983 
2865.503671  	96.768372 
2866.932138  	96.778135 
2868.360604  	96.762516 
2869.789071  	96.764671 
2871.217537  	96.755672 
2872.646003  	96.711078 
2874.074470  	96.720323 
2875.502936  	96.778451 
2876.931403  	96.812349 
2878.359869  	96.844117 
2879.788336  	96.870579 
2881.216802  	96.880173 
2882.645268  	96.901340 
2884.073735  	96.902313 
2885.502201  	96.882228 
2886.930668  	96.876391 
2888.359134  	96.842768 
2889.787601  	96.782876 
2891.216067  	96.758888 
2892.644533  	96.755048 
2894.073000  	96.722354 
2895.501466  	96.656633 
2896.929933  	96.592928 
2898.358399  	96.571819 
2899.786866  	96.572461 
2901.215332  	96.523956 
2902.643799  	96.424359 
2904.072265  	96.345135 
2905.500731  	96.280404 
2906.929198  	96.173987 
2908.357664  	96.067351 
2909.786131  	95.990696 
2911.214597  	95.877820 
2912.643064  	95.733119 
2914.071530  	95.624581 
2915.499996  	95.533192 
2916.928463  	95.400596 
2918.356929  	95.251234 
2919.785396  	95.151934 
2921.213862  	95.076084 
2922.642329  	94.988512 
2924.070795  	94.966579 
2925.499262  	95.015406 
2926.927728  	95.048534 
2928.356194  	95.078057 
2929.784661  	95.143852 
2931.213127  	95.235547 
2932.641594  	95.345930 
2934.070060  	95.469780 
2935.498527  	95.586347 
2936.926993  	95.681304 
2938.355459  	95.792109 
2939.783926  	95.919290 
2941.212392  	95.991408 
2942.640859  	96.042189 
2944.069325  	96.140457 
2945.497792  	96.226279 
2946.926258  	96.245906 
2948.354724  	96.224712 
2949.783191  	96.209285 
2951.211657  	96.203389 
2952.640124  	96.146435 
2954.068590  	96.073730 
2955.497057  	96.072655 
2956.925523  	96.090497 
2958.353990  	96.107475 
2959.782456  	96.181498 
2961.210922  	96.259095 
2962.639389  	96.294625 
2964.067855  	96.342637 
2965.496322  	96.435775 
2966.924788  	96.548031 
2968.353255  	96.643213 
2969.781721  	96.734953 
2971.210187  	96.830004 
2972.638654  	96.885225 
2974.067120  	96.927970 
2975.495587  	97.012697 
2976.924053  	97.085602 
2978.352520  	97.104380 
2979.780986  	97.133745 
2981.209453  	97.199635 
2982.637919  	97.237869 
2984.066385  	97.251495 
2985.494852  	97.298343 
2986.923318  	97.351979 
2988.351785  	97.381386 
2989.780251  	97.403699 
2991.208718  	97.419741 
2992.637184  	97.440026 
2994.065650  	97.447713 
2995.494117  	97.432124 
2996.922583  	97.448837 
2998.351050  	97.456194 
2999.779516  	97.419573 
3001.207983  	97.448896 
3002.636449  	97.504695 
3004.064916  	97.482108 
3005.493382  	97.472832 
3006.921848  	97.501603 
3008.350315  	97.482336 
3009.778781  	97.433020 
3011.207248  	97.403979 
3012.635714  	97.424731 
3014.064181  	97.475517 
3015.492647  	97.483652 
3016.921113  	97.460185 
3018.349580  	97.452577 
3019.778046  	97.452947 
3021.206513  	97.442745 
3022.634979  	97.404405 
3024.063446  	97.369648 
3025.491912  	97.386326 
3026.920378  	97.410840 
3028.348845  	97.392916 
3029.777311  	97.348901 
3031.205778  	97.314324 
3032.634244  	97.308946 
3034.062711  	97.310288 
3035.491177  	97.310225 
3036.919644  	97.312646 
3038.348110  	97.283678 
3039.776576  	97.246300 
3041.205043  	97.252185 
3042.633509  	97.260370 
3044.061976  	97.235462 
3045.490442  	97.215842 
3046.918909  	97.225566 
3048.347375  	97.234268 
3049.775841  	97.200871 
3051.204308  	97.166219 
3052.632774  	97.194480 
3054.061241  	97.215377 
3055.489707  	97.156617 
3056.918174  	97.112080 
3058.346640  	97.130551 
3059.775107  	97.113758 
3061.203573  	97.066658 
3062.632039  	97.079073 
3064.060506  	97.111764 
3065.488972  	97.096455 
3066.917439  	97.058708 
3068.345905  	97.044254 
3069.774372  	97.073243 
3071.202838  	97.107791 
3072.631304  	97.113038 
3074.059771  	97.130886 
3075.488237  	97.155714 
3076.916704  	97.144575 
3078.345170  	97.120812 
3079.773637  	97.087717 
3081.202103  	97.044642 
3082.630570  	97.044276 
3084.059036  	97.096927 
3085.487502  	97.146647 
3086.915969  	97.132313 
3088.344435  	97.087784 
3089.772902  	97.101363 
3091.201368  	97.140516 
3092.629835  	97.154638 
3094.058301  	97.150134 
3095.486767  	97.101061 
3096.915234  	97.076619 
3098.343700  	97.123471 
3099.772167  	97.101668 
3101.200633  	97.030289 
3102.629100  	97.058390 
3104.057566  	97.111981 
3105.486032  	97.104597 
3106.914499  	97.092353 
3108.342965  	97.101886 
3109.771432  	97.112345 
3111.199898  	97.100925 
3112.628365  	97.070459 
3114.056831  	97.050651 
3115.485298  	97.046641 
3116.913764  	97.053767 
3118.342230  	97.066106 
3119.770697  	97.076172 
3121.199163  	97.075755 
3122.627630  	97.044556 
3124.056096  	97.020812 
3125.484563  	97.041282 
3126.913029  	97.038917 
3128.341495  	97.007667 
3129.769962  	97.015764 
3131.198428  	97.034418 
3132.626895  	97.027220 
3134.055361  	97.023591 
3135.483828  	97.007249 
3136.912294  	96.959779 
3138.340761  	96.944292 
3139.769227  	96.977750 
3141.197693  	96.977697 
3142.626160  	96.943577 
3144.054626  	96.953730 
3145.483093  	96.978386 
3146.911559  	96.948548 
3148.340026  	96.893570 
3149.768492  	96.869064 
3151.196958  	96.860294 
3152.625425  	96.821832 
3154.053891  	96.787283 
3155.482358  	96.798342 
3156.910824  	96.796776 
3158.339291  	96.769119 
3159.767757  	96.755454 
3161.196224  	96.736830 
3162.624690  	96.722483 
3164.053156  	96.716820 
3165.481623  	96.690207 
3166.910089  	96.677674 
3168.338556  	96.682971 
3169.767022  	96.686001 
3171.195489  	96.703115 
3172.623955  	96.692320 
3174.052421  	96.663204 
3175.480888  	96.654986 
3176.909354  	96.612527 
3178.337821  	96.583233 
3179.766287  	96.608503 
3181.194754  	96.568148 
3182.623220  	96.501502 
3184.051686  	96.510386 
3185.480153  	96.506746 
3186.908619  	96.469413 
3188.337086  	96.462884 
3189.765552  	96.451304 
3191.194019  	96.431973 
3192.622485  	96.448445 
3194.050952  	96.456597 
3195.479418  	96.429803 
3196.907884  	96.425604 
3198.336351  	96.436186 
3199.764817  	96.417015 
3201.193284  	96.398656 
3202.621750  	96.376566 
3204.050217  	96.347661 
3205.478683  	96.376284 
3206.907149  	96.410965 
3208.335616  	96.380816 
3209.764082  	96.351585 
3211.192549  	96.336579 
3212.621015  	96.301450 
3214.049482  	96.271367 
3215.477948  	96.271284 
3216.906415  	96.303970 
3218.334881  	96.305559 
3219.763347  	96.263480 
3221.191814  	96.284430 
3222.620280  	96.314111 
3224.048747  	96.269671 
3225.477213  	96.262486 
3226.905680  	96.284974 
3228.334146  	96.244920 
3229.762612  	96.214419 
3231.191079  	96.226733 
3232.619545  	96.221883 
3234.048012  	96.171990 
3235.476478  	96.090604 
3236.904945  	96.061659 
3238.333411  	96.098344 
3239.761878  	96.088908 
3241.190344  	96.039360 
3242.618810  	96.033001 
3244.047277  	96.029450 
3245.475743  	95.985043 
3246.904210  	95.955639 
3248.332676  	95.961741 
3249.761143  	95.945132 
3251.189609  	95.882090 
3252.618075  	95.835344 
3254.046542  	95.841451 
3255.475008  	95.818692 
3256.903475  	95.746346 
3258.331941  	95.732162 
3259.760408  	95.744998 
3261.188874  	95.699752 
3262.617340  	95.666681 
3264.045807  	95.621573 
3265.474273  	95.510454 
3266.902740  	95.472345 
3268.331206  	95.518000 
3269.759673  	95.516916 
3271.188139  	95.472286 
3272.616606  	95.426568 
3274.045072  	95.418955 
3275.473538  	95.437381 
3276.902005  	95.410123 
3278.330471  	95.387606 
3279.758938  	95.391958 
3281.187404  	95.377290 
3282.615871  	95.385058 
3284.044337  	95.392178 
3285.472803  	95.388225 
3286.901270  	95.406882 
3288.329736  	95.369391 
3289.758203  	95.338346 
3291.186669  	95.389766 
3292.615136  	95.393702 
3294.043602  	95.398515 
3295.472069  	95.455862 
3296.900535  	95.422268 
3298.329001  	95.364796 
3299.757468  	95.391032 
3301.185934  	95.431181 
3302.614401  	95.457320 
3304.042867  	95.456316 
3305.471334  	95.462164 
3306.899800  	95.525601 
3308.328266  	95.570793 
3309.756733  	95.575655 
3311.185199  	95.593399 
3312.613666  	95.631873 
3314.042132  	95.682624 
3315.470599  	95.702064 
3316.899065  	95.707371 
3318.327531  	95.743397 
3319.755998  	95.769862 
3321.184464  	95.809503 
3322.612931  	95.877424 
3324.041397  	95.896066 
3325.469864  	95.868015 
3326.898330  	95.839755 
3328.326797  	95.855928 
3329.755263  	95.923788 
3331.183729  	95.971647 
3332.612196  	96.020501 
3334.040662  	96.076013 
3335.469129  	96.076093 
3336.897595  	96.110644 
3338.326062  	96.170444 
3339.754528  	96.142752 
3341.182994  	96.149129 
3342.611461  	96.235293 
3344.039927  	96.270023 
3345.468394  	96.277151 
3346.896860  	96.319527 
3348.325327  	96.365484 
3349.753793  	96.377524 
3351.182260  	96.370112 
3352.610726  	96.405369 
3354.039192  	96.452361 
3355.467659  	96.467832 
3356.896125  	96.517904 
3358.324592  	96.572904 
3359.753058  	96.564830 
3361.181525  	96.558219 
3362.609991  	96.588921 
3364.038457  	96.623141 
3365.466924  	96.644928 
3366.895390  	96.664796 
3368.323857  	96.722788 
3369.752323  	96.781288 
3371.180790  	96.763439 
3372.609256  	96.746081 
3374.037723  	96.812597 
3375.466189  	96.864818 
3376.894655  	96.848641 
3378.323122  	96.861393 
3379.751588  	96.911093 
3381.180055  	96.943324 
3382.608521  	96.982713 
3384.036988  	97.004821 
3385.465454  	96.997391 
3386.893920  	97.019318 
3388.322387  	97.022810 
3389.750853  	97.015236 
3391.179320  	97.087182 
3392.607786  	97.142302 
3394.036253  	97.131271 
3395.464719  	97.153155 
3396.893185  	97.158817 
3398.321652  	97.133993 
3399.750118  	97.160467 
3401.178585  	97.187311 
3402.607051  	97.205575 
3404.035518  	97.270105 
3405.463984  	97.312064 
3406.892451  	97.298335 
3408.320917  	97.303399 
3409.749383  	97.325183 
3411.177850  	97.316435 
3412.606316  	97.320869 
3414.034783  	97.366405 
3415.463249  	97.396852 
3416.891716  	97.421294 
3418.320182  	97.455435 
3419.748648  	97.438653 
3421.177115  	97.403817 
3422.605581  	97.425575 
3424.034048  	97.473470 
3425.462514  	97.510345 
3426.890981  	97.512754 
3428.319447  	97.504576 
3429.747914  	97.538894 
3431.176380  	97.565712 
3432.604846  	97.541841 
3434.033313  	97.514635 
3435.461779  	97.532147 
3436.890246  	97.595083 
3438.318712  	97.624427 
3439.747179  	97.620168 
3441.175645  	97.666002 
3442.604111  	97.700749 
3444.032578  	97.695671 
3445.461044  	97.707854 
3446.889511  	97.685234 
3448.317977  	97.686397 
3449.746444  	97.773360 
3451.174910  	97.804540 
3452.603377  	97.787216 
3454.031843  	97.817747 
3455.460309  	97.844627 
3456.888776  	97.850141 
3458.317242  	97.858730 
3459.745709  	97.849915 
3461.174175  	97.833792 
3462.602642  	97.865189 
3464.031108  	97.957362 
3465.459574  	97.982209 
3466.888041  	97.907975 
3468.316507  	97.908169 
3469.744974  	97.957660 
3471.173440  	97.941485 
3472.601907  	97.960459 
3474.030373  	98.017291 
3475.458839  	98.016046 
3476.887306  	98.004756 
3478.315772  	98.018678 
3479.744239  	98.036330 
3481.172705  	98.041238 
3482.601172  	98.033805 
3484.029638  	98.060819 
3485.458105  	98.095407 
3486.886571  	98.093335 
3488.315037  	98.097390 
3489.743504  	98.129819 
3491.171970  	98.182442 
3492.600437  	98.213652 
3494.028903  	98.171078 
3495.457370  	98.136282 
3496.885836  	98.183154 
3498.314302  	98.252646 
3499.742769  	98.308105 
3501.171235  	98.310672 
3502.599702  	98.222324 
3504.028168  	98.156927 
3505.456635  	98.219505 
3506.885101  	98.331579 
3508.313568  	98.376621 
3509.742034  	98.332956 
3511.170500  	98.310854 
3512.598967  	98.353973 
3514.027433  	98.405500 
3515.455900  	98.447001 
3516.884366  	98.447724 
3518.312833  	98.403157 
3519.741299  	98.420157 
3521.169765  	98.469242 
3522.598232  	98.385500 
3524.026698  	98.278406 
3525.455165  	98.358218 
3526.883631  	98.460324 
3528.312098  	98.460873 
3529.740564  	98.444659 
3531.169031  	98.406597 
3532.597497  	98.404539 
3534.025963  	98.506253 
3535.454430  	98.564297 
3536.882896  	98.547379 
3538.311363  	98.581509 
3539.739829  	98.616710 
3541.168296  	98.607435 
3542.596762  	98.602913 
3544.025228  	98.621723 
3545.453695  	98.636079 
3546.882161  	98.596028 
3548.310628  	98.595019 
3549.739094  	98.699111 
3551.167561  	98.728762 
3552.596027  	98.617102 
3554.024493  	98.594643 
3555.452960  	98.666201 
3556.881426  	98.698254 
3558.309893  	98.690828 
3559.738359  	98.659504 
3561.166826  	98.660044 
3562.595292  	98.755218 
3564.023759  	98.887275 
3565.452225  	98.953993 
3566.880691  	98.821195 
3568.309158  	98.636782 
3569.737624  	98.690830 
3571.166091  	98.831831 
3572.594557  	98.884248 
3574.023024  	98.839924 
3575.451490  	98.809307 
3576.879956  	98.799615 
3578.308423  	98.769025 
3579.736889  	98.768894 
3581.165356  	98.826140 
3582.593822  	98.912144 
3584.022289  	99.046085 
3585.450755  	99.160260 
3586.879222  	99.077644 
3588.307688  	98.906729 
3589.736154  	98.933717 
3591.164621  	98.981136 
3592.593087  	98.982324 
3594.021554  	98.979556 
3595.450020  	98.973934 
3596.878487  	98.979670 
3598.306953  	99.063554 
3599.735419  	99.153356 
3601.163886  	99.118607 
3602.592352  	99.056402 
3604.020819  	99.088256 
3605.449285  	99.166504 
3606.877752  	99.195419 
3608.306218  	99.074751 
3609.734685  	98.972365 
3611.163151  	99.026589 
3612.591617  	98.985921 
3614.020084  	98.858449 
3615.448550  	99.011366 
3616.877017  	99.269779 
3618.305483  	99.339440 
3619.733950  	99.198358 
3621.162416  	99.107756 
3622.590882  	99.131108 
3624.019349  	99.162460 
3625.447815  	99.213094 
3626.876282  	99.392802 
3628.304748  	99.396212 
3629.733215  	98.957853 
3631.161681  	99.050237 
3632.590147  	99.210134 
3634.018614  	99.102909 
3635.447080  	99.065220 
3636.875547  	99.232797 
3638.304013  	99.269569 
3639.732480  	99.212213 
3641.160946  	99.222442 
3642.589413  	99.193111 
3644.017879  	99.219312 
3645.446345  	99.360917 
3646.874812  	99.402007 
3648.303278  	99.332612 
3649.731745  	99.255642 
3651.160211  	98.989336 
3652.588678  	99.015614 
3654.017144  	99.251921 
3655.445610  	99.320649 
3656.874077  	99.112549 
3658.302543  	99.117287 
3659.731010  	99.258346 
3661.159476  	99.313917 
3662.587943  	99.270199 
3664.016409  	99.199796 
3665.444876  	99.149259 
3666.873342  	99.227690 
3668.301808  	99.450239 
3669.730275  	99.410634 
3671.158741  	99.099394 
3672.587208  	99.327491 
3674.015674  	99.681278 
3675.444141  	99.372573 
3676.872607  	99.053518 
3678.301073  	99.196228 
3679.729540  	99.119809 
3681.158006  	99.064080 
3682.586473  	99.200621 
3684.014939  	99.305704 
3685.443406  	99.410603 
3686.871872  	99.562758 
3688.300338  	99.518801 
3689.728805  	99.291051 
3691.157271  	99.114669 
3692.585738  	99.047187 
3694.014204  	99.184360 
3695.442671  	99.307216 
3696.871137  	99.309596 
3698.299604  	99.403702 
3699.728070  	99.485807 
3701.156536  	99.306927 
3702.585003  	99.087083 
3704.013469  	99.133823 
3705.441936  	99.246583 
3706.870402  	99.380793 
3708.298869  	99.538646 
3709.727335  	99.625500 
3711.155801  	99.542653 
3712.584268  	99.263607 
3714.012734  	99.090112 
3715.441201  	99.138952 
3716.869667  	99.203275 
3718.298134  	99.255587 
3719.726600  	99.456371 
3721.155067  	99.607008 
3722.583533  	99.473610 
3724.011999  	99.305984 
3725.440466  	99.193986 
3726.868932  	98.984101 
3728.297399  	98.996428 
3729.725865  	99.300778 
3731.154332  	99.479206 
3732.582798  	99.408908 
3734.011264  	99.327763 
3735.439731  	99.208890 
3736.868197  	99.013171 
3738.296664  	99.055133 
3739.725130  	99.102754 
3741.153597  	99.155300 
3742.582063  	99.378979 
3744.010530  	99.419429 
3745.438996  	99.052875 
3746.867462  	99.182279 
3748.295929  	99.310392 
3749.724395  	99.123645 
3751.152862  	98.910770 
3752.581328  	98.867471 
3754.009795  	98.975362 
3755.438261  	99.128992 
3756.866727  	99.195599 
3758.295194  	99.186501 
3759.723660  	99.085897 
3761.152127  	98.938481 
3762.580593  	99.036144 
3764.009060  	99.156012 
3765.437526  	99.078801 
3766.865992  	99.091017 
3768.294459  	99.233334 
3769.722925  	99.265169 
3771.151392  	99.211222 
3772.579858  	99.219683 
3774.008325  	99.227103 
3775.436791  	99.204890 
3776.865258  	99.275332 
3778.293724  	99.355594 
3779.722190  	99.190951 
3781.150657  	99.060398 
3782.579123  	99.170961 
3784.007590  	99.213956 
3785.436056  	99.149001 
3786.864523  	99.193349 
3788.292989  	99.300026 
3789.721455  	99.395976 
3791.149922  	99.373603 
3792.578388  	99.282331 
3794.006855  	99.374094 
3795.435321  	99.435198 
3796.863788  	99.162301 
3798.292254  	99.127151 
3799.720721  	99.395523 
3801.149187  	99.327186 
3802.577653  	99.044823 
3804.006120  	99.332668 
3805.434586  	99.593664 
3806.863053  	99.406532 
3808.291519  	99.184904 
3809.719986  	99.260746 
3811.148452  	99.203034 
3812.576918  	99.173465 
3814.005385  	99.369449 
3815.433851  	99.302277 
3816.862318  	98.953587 
3818.290784  	99.179157 
3819.719251  	99.451951 
3821.147717  	99.194915 
3822.576184  	99.100000 
3824.004650  	99.436425 
3825.433116  	99.542501 
3826.861583  	99.282980 
3828.290049  	99.148968 
3829.718516  	99.190614 
3831.146982  	99.109042 
3832.575449  	99.059331 
3834.003915  	99.147843 
3835.432381  	99.223873 
3836.860848  	99.372985 
3838.289314  	99.495679 
3839.717781  	99.396032 
3841.146247  	99.356334 
3842.574714  	99.365570 
3844.003180  	99.158673 
3845.431646  	98.935623 
3846.860113  	98.985674 
3848.288579  	99.156514 
3849.717046  	99.346944 
3851.145512  	99.579488 
3852.573979  	99.470925 
3854.002445  	98.801837 
3855.430912  	98.939524 
3856.859378  	99.074289 
3858.287844  	99.090239 
3859.716311  	99.203833 
3861.144777  	99.267719 
3862.573244  	99.254614 
3864.001710  	99.169067 
3865.430177  	98.862253 
3866.858643  	98.962232 
3868.287109  	99.292296 
3869.715576  	99.063780 
3871.144042  	98.884678 
3872.572509  	99.293332 
3874.000975  	99.358959 
3875.429442  	99.112962 
3876.857908  	99.162665 
3878.286375  	99.291526 
3879.714841  	99.219310 
3881.143307  	98.943247 
3882.571774  	98.957392 
3884.000240  	99.185758 
3885.428707  	99.157952 
3886.857173  	99.074062 
3888.285640  	99.353407 
3889.714106  	99.544362 
3891.142572  	99.386671 
3892.571039  	99.167557 
3893.999505  	99.100904 
3895.427972  	99.082489 
3896.856438  	99.116140 
3898.284905  	99.134744 
3899.713371  	99.075652 
3901.141838  	99.092304 
3902.570304  	99.266256 
3903.998770  	99.316313 
3905.427237  	99.079032 
3906.855703  	98.936859 
3908.284170  	98.996297 
3909.712636  	99.075770 
3911.141103  	99.099749 
3912.569569  	99.132818 
3913.998035  	99.202269 
3915.426502  	99.199357 
3916.854968  	99.075295 
3918.283435  	99.029039 
3919.711901  	99.043946 
3921.140368  	99.027984 
3922.568834  	99.065866 
3923.997300  	99.056176 
3925.425767  	98.980201 
3926.854233  	99.074315 
3928.282700  	99.191019 
3929.711166  	99.149567 
3931.139633  	99.060843 
3932.568099  	98.995936 
3933.996566  	98.967235 
3935.425032  	99.037223 
3936.853498  	99.116679 
3938.281965  	99.133345 
3939.710431  	99.158802 
3941.138898  	99.183149 
3942.567364  	99.110863 
3943.995831  	99.023962 
3945.424297  	99.024289 
3946.852763  	99.025231 
3948.281230  	98.978324 
3949.709696  	98.948881 
3951.138163  	98.990661 
3952.566629  	99.083273 
3953.995096  	99.124134 
3955.423562  	99.071370 
3956.852029  	99.058151 
3958.280495  	99.101743 
3959.708961  	99.085583 
3961.137428  	99.000945 
3962.565894  	98.912025 
3963.994361  	98.919946 
3965.422827  	99.028625 
3966.851294  	99.062921 
3968.279760  	99.016491 
3969.708226  	99.022451 
3971.136693  	99.036578 
3972.565159  	99.043617 
3973.993626  	99.062583 
3975.422092  	99.010870 
3976.850559  	98.970648 
3978.279025  	99.034680 
3979.707491  	99.075155 
3981.135958  	99.043500 
3982.564424  	99.002496 
3983.992891  	98.983169 
3985.421357  	99.021590 
3986.849824  	99.062002 
3988.278290  	99.031252 
3989.706757  	99.012014 
3991.135223  	99.045426 
3992.563689  	99.063683 
3993.992156  	99.054911 
3995.420622  	99.022208 
3996.849089  	98.995530 
3998.277555  	99.017011 
3999.706022  	99.030677 
