##TITLE=No Description
##DATA TYPE=INFRARED SPECTRUM
##XUNITS=1/CM
##YUNITS=%T
399.970602  	84.042382 
401.399069  	82.088386 
402.827535  	81.808955 
404.256001  	83.716848 
405.684468  	84.489388 
407.112934  	83.827950 
408.541401  	83.535001 
409.969867  	83.595155 
411.398334  	84.561240 
412.826800  	86.080677 
414.255267  	86.573755 
415.683733  	86.570176 
417.112199  	86.678313 
418.540666  	85.011661 
419.969132  	83.574608 
421.397599  	84.160036 
422.826065  	83.687204 
424.254532  	82.984370 
425.682998  	83.796508 
427.111464  	84.643074 
428.539931  	84.227643 
429.968397  	83.438529 
431.396864  	83.084410 
432.825330  	83.098402 
434.253797  	83.696963 
435.682263  	84.781783 
437.110730  	85.157201 
438.539196  	85.250755 
439.967662  	85.449025 
441.396129  	84.601158 
442.824595  	83.919443 
444.253062  	84.722339 
445.681528  	85.030590 
447.109995  	84.556185 
448.538461  	83.918023 
449.966927  	83.182088 
451.395394  	82.868052 
452.823860  	82.304657 
454.252327  	81.709537 
455.680793  	82.516955 
457.109260  	83.339005 
458.537726  	82.365210 
459.966192  	82.082382 
461.394659  	82.015948 
462.823125  	81.256877 
464.251592  	81.376063 
465.680058  	82.058120 
467.108525  	82.041402 
468.536991  	81.637831 
469.965458  	81.489228 
471.393924  	81.321857 
472.822390  	80.982370 
474.250857  	81.285990 
475.679323  	81.976742 
477.107790  	81.907812 
478.536256  	81.334997 
479.964723  	81.214195 
481.393189  	81.109039 
482.821655  	80.977865 
484.250122  	81.139678 
485.678588  	81.243672 
487.107055  	81.368732 
488.535521  	81.463295 
489.963988  	81.024205 
491.392454  	80.565284 
492.820921  	80.744461 
494.249387  	81.182004 
495.677853  	81.491574 
497.106320  	81.473987 
498.534786  	81.014797 
499.963253  	80.596761 
501.391719  	80.511162 
502.820186  	80.643340 
504.248652  	80.800976 
505.677118  	80.716163 
507.105585  	80.344967 
508.534051  	80.238674 
509.962518  	80.484772 
511.390984  	80.536888 
512.819451  	80.412708 
514.247917  	80.549794 
515.676384  	80.686766 
517.104850  	80.528689 
518.533316  	80.640968 
519.961783  	80.968453 
521.390249  	80.804400 
522.818716  	80.451695 
524.247182  	80.242258 
525.675649  	79.985043 
527.104115  	79.917810 
528.532581  	79.907939 
529.961048  	79.621860 
531.389514  	79.530778 
532.817981  	79.673672 
534.246447  	79.560881 
535.674914  	79.500941 
537.103380  	79.764792 
538.531846  	79.976247 
539.960313  	79.912587 
541.388779  	79.792683 
542.817246  	80.006180 
544.245712  	80.322148 
545.674179  	80.272049 
547.102645  	80.206981 
548.531112  	80.440434 
549.959578  	80.611535 
551.388044  	80.646180 
552.816511  	80.798842 
554.244977  	81.123537 
555.673444  	81.378833 
557.101910  	81.337202 
558.530377  	81.193426 
559.958843  	81.190159 
561.387309  	81.268768 
562.815776  	81.274674 
564.244242  	81.136605 
565.672709  	81.080198 
567.101175  	81.304143 
568.529642  	81.556838 
569.958108  	81.631300 
571.386575  	81.656037 
572.815041  	81.699983 
574.243507  	81.615590 
575.671974  	81.393362 
577.100440  	81.459189 
578.528907  	81.757877 
579.957373  	81.733392 
581.385840  	81.620643 
582.814306  	81.841011 
584.242772  	81.984456 
585.671239  	81.918304 
587.099705  	82.015504 
588.528172  	82.275041 
589.956638  	82.379401 
591.385105  	82.221701 
592.813571  	82.108470 
594.242037  	82.146525 
595.670504  	82.123277 
597.098970  	82.117523 
598.527437  	82.067604 
599.955903  	81.850718 
601.384370  	81.861799 
602.812836  	82.004279 
604.241303  	82.140963 
605.669769  	82.342451 
607.098235  	82.495894 
608.526702  	82.469888 
609.955168  	82.443035 
611.383635  	82.398582 
612.812101  	82.464882 
614.240568  	82.650101 
615.669034  	82.621397 
617.097500  	82.539815 
618.525967  	82.506175 
619.954433  	82.343823 
621.382900  	82.366031 
622.811366  	82.623966 
624.239833  	82.773793 
625.668299  	82.890617 
627.096766  	83.003469 
628.525232  	83.116493 
629.953698  	83.236522 
631.382165  	83.235328 
632.810631  	83.220172 
634.239098  	83.242667 
635.667564  	83.210926 
637.096031  	83.193226 
638.524497  	83.209716 
639.952963  	83.203317 
641.381430  	83.203892 
642.809896  	83.288697 
644.238363  	83.479859 
645.666829  	83.606192 
647.095296  	83.587474 
648.523762  	83.614179 
649.952229  	83.736999 
651.380695  	83.843172 
652.809161  	83.933709 
654.237628  	83.985219 
655.666094  	84.000479 
657.094561  	84.020905 
658.523027  	84.057643 
659.951494  	84.113766 
661.379960  	84.191168 
662.808426  	84.232254 
664.236893  	84.270014 
665.665359  	84.343425 
667.093826  	84.426688 
668.522292  	84.519936 
669.950759  	84.594026 
671.379225  	84.697810 
672.807691  	84.769583 
674.236158  	84.844105 
675.664624  	84.944480 
677.093091  	84.935021 
678.521557  	84.887075 
679.950024  	84.924222 
681.378490  	84.987763 
682.806957  	85.054187 
684.235423  	85.124938 
685.663889  	85.131591 
687.092356  	85.104290 
688.520822  	85.118169 
689.949289  	85.161334 
691.377755  	85.201207 
692.806222  	85.160185 
694.234688  	85.127987 
695.663154  	85.179016 
697.091621  	85.195102 
698.520087  	85.196778 
699.948554  	85.214993 
701.377020  	85.241558 
702.805487  	85.367154 
704.233953  	85.536044 
705.662420  	85.679650 
707.090886  	85.798708 
708.519352  	85.923492 
709.947819  	86.051136 
711.376285  	86.137912 
712.804752  	86.141088 
714.233218  	86.128313 
715.661685  	86.162005 
717.090151  	86.213625 
718.518617  	86.201567 
719.947084  	86.110126 
721.375550  	86.095566 
722.804017  	86.219770 
724.232483  	86.360950 
725.660950  	86.522688 
727.089416  	86.695032 
728.517883  	86.893400 
729.946349  	87.102427 
731.374815  	87.236800 
732.803282  	87.304491 
734.231748  	87.420363 
735.660215  	87.548373 
737.088681  	87.576865 
738.517148  	87.602144 
739.945614  	87.609563 
741.374080  	87.644007 
742.802547  	87.702106 
744.231013  	87.763372 
745.659480  	87.854096 
747.087946  	87.963449 
748.516413  	88.072584 
749.944879  	88.164491 
751.373345  	88.253320 
752.801812  	88.365632 
754.230278  	88.395502 
755.658745  	88.365889 
757.087211  	88.438661 
758.515678  	88.523764 
759.944144  	88.530033 
761.372611  	88.536844 
762.801077  	88.562077 
764.229543  	88.644580 
765.658010  	88.755585 
767.086476  	88.802988 
768.514943  	88.866438 
769.943409  	88.952620 
771.371876  	88.990576 
772.800342  	89.017750 
774.228808  	89.002444 
775.657275  	88.941620 
777.085741  	88.854674 
778.514208  	88.691920 
779.942674  	88.621001 
781.371141  	88.752427 
782.799607  	88.867346 
784.228074  	88.919991 
785.656540  	89.003599 
787.085006  	89.070416 
788.513473  	89.144207 
789.941939  	89.242563 
791.370406  	89.269384 
792.798872  	89.219289 
794.227339  	89.163856 
795.655805  	89.105464 
797.084271  	89.027552 
798.512738  	88.989249 
799.941204  	89.033157 
801.369671  	89.104806 
802.798137  	89.184586 
804.226604  	89.273377 
805.655070  	89.319758 
807.083537  	89.330627 
808.512003  	89.332115 
809.940469  	89.346217 
811.368936  	89.406170 
812.797402  	89.453262 
814.225869  	89.450842 
815.654335  	89.455929 
817.082802  	89.483976 
818.511268  	89.525473 
819.939734  	89.548557 
821.368201  	89.557478 
822.796667  	89.639572 
824.225134  	89.743390 
825.653600  	89.783935 
827.082067  	89.842111 
828.510533  	89.918113 
829.938999  	89.945906 
831.367466  	89.953243 
832.795932  	89.961398 
834.224399  	90.002509 
835.652865  	90.080208 
837.081332  	90.128013 
838.509798  	90.166042 
839.938265  	90.234701 
841.366731  	90.298536 
842.795197  	90.330913 
844.223664  	90.318035 
845.652130  	90.269722 
847.080597  	90.223984 
848.509063  	90.199937 
849.937530  	90.185731 
851.365996  	90.154623 
852.794462  	90.130257 
854.222929  	90.132187 
855.651395  	90.092578 
857.079862  	90.020034 
858.508328  	89.984806 
859.936795  	89.945056 
861.365261  	89.894606 
862.793728  	89.892577 
864.222194  	89.901585 
865.650660  	89.910190 
867.079127  	89.964599 
868.507593  	90.037697 
869.936060  	90.087433 
871.364526  	90.102908 
872.792993  	90.118038 
874.221459  	90.174723 
875.649925  	90.214513 
877.078392  	90.196701 
878.506858  	90.176485 
879.935325  	90.170235 
881.363791  	90.191551 
882.792258  	90.255279 
884.220724  	90.316387 
885.649190  	90.379876 
887.077657  	90.433734 
888.506123  	90.415025 
889.934590  	90.394491 
891.363056  	90.421720 
892.791523  	90.422067 
894.219989  	90.443063 
895.648456  	90.525155 
897.076922  	90.561878 
898.505388  	90.539830 
899.933855  	90.492834 
901.362321  	90.385079 
902.790788  	90.257686 
904.219254  	90.174208 
905.647721  	90.100763 
907.076187  	89.971790 
908.504653  	89.782202 
909.933120  	89.598131 
911.361586  	89.450685 
912.790053  	89.330522 
914.218519  	89.244606 
915.646986  	89.190129 
917.075452  	89.196657 
918.503919  	89.256257 
919.932385  	89.302284 
921.360851  	89.374893 
922.789318  	89.492158 
924.217784  	89.581550 
925.646251  	89.656772 
927.074717  	89.714668 
928.503184  	89.729576 
929.931650  	89.768701 
931.360116  	89.805984 
932.788583  	89.789790 
934.217049  	89.797852 
935.645516  	89.824365 
937.073982  	89.803279 
938.502449  	89.770408 
939.930915  	89.761180 
941.359382  	89.760977 
942.787848  	89.721052 
944.216314  	89.613612 
945.644781  	89.510710 
947.073247  	89.460748 
948.501714  	89.402481 
949.930180  	89.298954 
951.358647  	89.180020 
952.787113  	89.029142 
954.215579  	88.825852 
955.644046  	88.653274 
957.072512  	88.539730 
958.500979  	88.398160 
959.929445  	88.207719 
961.357912  	87.989602 
962.786378  	87.812072 
964.214844  	87.762535 
965.643311  	87.730024 
967.071777  	87.654746 
968.500244  	87.667550 
969.928710  	87.723400 
971.357177  	87.758545 
972.785643  	87.832794 
974.214110  	87.883741 
975.642576  	87.908401 
977.071042  	87.940403 
978.499509  	87.885809 
979.927975  	87.790851 
981.356442  	87.705362 
982.784908  	87.547334 
984.213375  	87.375810 
985.641841  	87.228334 
987.070307  	87.032952 
988.498774  	86.796081 
989.927240  	86.521342 
991.355707  	86.253918 
992.784173  	86.049818 
994.212640  	85.837739 
995.641106  	85.659616 
997.069573  	85.590248 
998.498039  	85.503201 
999.926505  	85.376046 
1001.354972  	85.290921 
1002.783438  	85.200387 
1004.211905  	85.072511 
1005.640371  	84.909955 
1007.068838  	84.699692 
1008.497304  	84.467521 
1009.925770  	84.224867 
1011.354237  	83.994550 
1012.782703  	83.792683 
1014.211170  	83.569808 
1015.639636  	83.328785 
1017.068103  	83.094331 
1018.496569  	82.875125 
1019.925036  	82.693103 
1021.353502  	82.479429 
1022.781968  	82.237561 
1024.210435  	82.075294 
1025.638901  	81.925108 
1027.067368  	81.737957 
1028.495834  	81.591797 
1029.924301  	81.481125 
1031.352767  	81.399562 
1032.781233  	81.283422 
1034.209700  	81.069393 
1035.638166  	80.891570 
1037.066633  	80.777212 
1038.495099  	80.655176 
1039.923566  	80.558036 
1041.352032  	80.428811 
1042.780498  	80.289990 
1044.208965  	80.246871 
1045.637431  	80.208940 
1047.065898  	80.124586 
1048.494364  	80.015548 
1049.922831  	79.879449 
1051.351297  	79.759036 
1052.779764  	79.634656 
1054.208230  	79.545955 
1055.636696  	79.525153 
1057.065163  	79.455588 
1058.493629  	79.412005 
1059.922096  	79.432673 
1061.350562  	79.404209 
1062.779029  	79.447470 
1064.207495  	79.540278 
1065.635961  	79.533426 
1067.064428  	79.534660 
1068.492894  	79.564627 
1069.921361  	79.587949 
1071.349827  	79.588907 
1072.778294  	79.483788 
1074.206760  	79.418103 
1075.635227  	79.446086 
1077.063693  	79.408252 
1078.492159  	79.417214 
1079.920626  	79.533457 
1081.349092  	79.656898 
1082.777559  	79.837394 
1084.206025  	80.087395 
1085.634492  	80.382106 
1087.062958  	80.694991 
1088.491424  	81.000972 
1089.919891  	81.316157 
1091.348357  	81.541885 
1092.776824  	81.668362 
1094.205290  	81.847888 
1095.633757  	82.094152 
1097.062223  	82.314801 
1098.490690  	82.436650 
1099.919156  	82.538849 
1101.347622  	82.764872 
1102.776089  	83.003211 
1104.204555  	83.146665 
1105.633022  	83.264880 
1107.061488  	83.363470 
1108.489955  	83.473417 
1109.918421  	83.604475 
1111.346887  	83.677139 
1112.775354  	83.727785 
1114.203820  	83.814132 
1115.632287  	83.932261 
1117.060753  	84.061801 
1118.489220  	84.169185 
1119.917686  	84.306787 
1121.346152  	84.488130 
1122.774619  	84.679694 
1124.203085  	84.920064 
1125.631552  	85.142906 
1127.060018  	85.332440 
1128.488485  	85.570771 
1129.916951  	85.776680 
1131.345418  	85.957388 
1132.773884  	86.181797 
1134.202350  	86.357778 
1135.630817  	86.500990 
1137.059283  	86.639544 
1138.487750  	86.693388 
1139.916216  	86.702895 
1141.344683  	86.710730 
1142.773149  	86.688848 
1144.201615  	86.641503 
1145.630082  	86.547584 
1147.058548  	86.411201 
1148.487015  	86.276027 
1149.915481  	86.154593 
1151.343948  	86.061651 
1152.772414  	85.957165 
1154.200881  	85.799300 
1155.629347  	85.669992 
1157.057813  	85.616345 
1158.486280  	85.590435 
1159.914746  	85.572234 
1161.343213  	85.574476 
1162.771679  	85.614062 
1164.200146  	85.676054 
1165.628612  	85.738972 
1167.057078  	85.808531 
1168.485545  	85.882947 
1169.914011  	85.980400 
1171.342478  	86.097520 
1172.770944  	86.216742 
1174.199411  	86.379479 
1175.627877  	86.563478 
1177.056344  	86.719387 
1178.484810  	86.866486 
1179.913276  	86.983298 
1181.341743  	87.090565 
1182.770209  	87.242790 
1184.198676  	87.364209 
1185.627142  	87.393434 
1187.055609  	87.366292 
1188.484075  	87.328856 
1189.912541  	87.322457 
1191.341008  	87.324317 
1192.769474  	87.272162 
1194.197941  	87.162960 
1195.626407  	87.032580 
1197.054874  	86.917223 
1198.483340  	86.809897 
1199.911806  	86.677743 
1201.340273  	86.534365 
1202.768739  	86.379708 
1204.197206  	86.209288 
1205.625672  	86.070821 
1207.054139  	85.949769 
1208.482605  	85.791905 
1209.911072  	85.628194 
1211.339538  	85.507525 
1212.768004  	85.414405 
1214.196471  	85.305879 
1215.624937  	85.195893 
1217.053404  	85.116718 
1218.481870  	85.036673 
1219.910337  	84.954773 
1221.338803  	84.906737 
1222.767269  	84.882345 
1224.195736  	84.860712 
1225.624202  	84.814266 
1227.052669  	84.778753 
1228.481135  	84.804624 
1229.909602  	84.809276 
1231.338068  	84.788542 
1232.766535  	84.824059 
1234.195001  	84.854927 
1235.623467  	84.867093 
1237.051934  	84.920745 
1238.480400  	84.983900 
1239.908867  	85.042641 
1241.337333  	85.113799 
1242.765800  	85.215107 
1244.194266  	85.351928 
1245.622732  	85.470115 
1247.051199  	85.579349 
1248.479665  	85.721657 
1249.908132  	85.885066 
1251.336598  	86.070539 
1252.765065  	86.255082 
1254.193531  	86.432422 
1255.621997  	86.618794 
1257.050464  	86.777776 
1258.478930  	86.923130 
1259.907397  	87.081732 
1261.335863  	87.234383 
1262.764330  	87.378942 
1264.192796  	87.497209 
1265.621263  	87.619434 
1267.049729  	87.767111 
1268.478195  	87.870178 
1269.906662  	87.962835 
1271.335128  	88.070921 
1272.763595  	88.123995 
1274.192061  	88.182891 
1275.620528  	88.276284 
1277.048994  	88.329811 
1278.477460  	88.366557 
1279.905927  	88.413060 
1281.334393  	88.462575 
1282.762860  	88.512221 
1284.191326  	88.539832 
1285.619793  	88.586764 
1287.048259  	88.665777 
1288.476726  	88.726830 
1289.905192  	88.779395 
1291.333658  	88.826947 
1292.762125  	88.883433 
1294.190591  	88.950131 
1295.619058  	88.952244 
1297.047524  	88.930616 
1298.475991  	88.964830 
1299.904457  	89.002483 
1301.332923  	89.030021 
1302.761390  	89.046087 
1304.189856  	89.048978 
1305.618323  	89.068470 
1307.046789  	89.091381 
1308.475256  	89.099342 
1309.903722  	89.112359 
1311.332189  	89.132318 
1312.760655  	89.145725 
1314.189121  	89.172092 
1315.617588  	89.261217 
1317.046054  	89.385288 
1318.474521  	89.463797 
1319.902987  	89.543796 
1321.331454  	89.662888 
1322.759920  	89.772946 
1324.188386  	89.895630 
1325.616853  	90.013740 
1327.045319  	90.059650 
1328.473786  	90.097821 
1329.902252  	90.147414 
1331.330719  	90.175886 
1332.759185  	90.172805 
1334.187651  	90.175378 
1335.616118  	90.196510 
1337.044584  	90.224740 
1338.473051  	90.236685 
1339.901517  	90.224634 
1341.329984  	90.221691 
1342.758450  	90.243028 
1344.186917  	90.267265 
1345.615383  	90.270054 
1347.043849  	90.285544 
1348.472316  	90.224682 
1349.900782  	90.155252 
1351.329249  	90.177474 
1352.757715  	90.148759 
1354.186182  	90.098020 
1355.614648  	90.014399 
1357.043114  	89.910465 
1358.471581  	89.833750 
1359.900047  	89.791433 
1361.328514  	89.758381 
1362.756980  	89.606492 
1364.185447  	89.347390 
1365.613913  	89.197933 
1367.042380  	89.117454 
1368.470846  	88.990740 
1369.899312  	88.860390 
1371.327779  	88.808661 
1372.756245  	88.793804 
1374.184712  	88.646851 
1375.613178  	88.407184 
1377.041645  	88.275248 
1378.470111  	88.184134 
1379.898577  	88.109574 
1381.327044  	88.095523 
1382.755510  	88.036185 
1384.183977  	87.969921 
1385.612443  	88.011110 
1387.040910  	87.966292 
1388.469376  	87.831942 
1389.897843  	87.811693 
1391.326309  	87.872509 
1392.754775  	88.005008 
1394.183242  	88.118281 
1395.611708  	88.052816 
1397.040175  	88.066367 
1398.468641  	88.195034 
1399.897108  	88.180647 
1401.325574  	88.155524 
1402.754040  	88.275030 
1404.182507  	88.388572 
1405.610973  	88.417125 
1407.039440  	88.457000 
1408.467906  	88.538046 
1409.896373  	88.599185 
1411.324839  	88.641115 
1412.753305  	88.675000 
1414.181772  	88.729909 
1415.610238  	88.786119 
1417.038705  	88.886165 
1418.467171  	89.000462 
1419.895638  	88.962818 
1421.324104  	88.975421 
1422.752571  	89.080779 
1424.181037  	89.137820 
1425.609503  	89.113476 
1427.037970  	89.167655 
1428.466436  	89.172804 
1429.894903  	89.089519 
1431.323369  	89.002837 
1432.751836  	88.924620 
1434.180302  	88.925578 
1435.608768  	88.993390 
1437.037235  	88.838430 
1438.465701  	88.629105 
1439.894168  	88.578800 
1441.322634  	88.546732 
1442.751101  	88.513134 
1444.179567  	88.474746 
1445.608034  	88.456062 
1447.036500  	88.408693 
1448.464966  	88.209838 
1449.893433  	88.105793 
1451.321899  	88.097690 
1452.750366  	87.980335 
1454.178832  	87.986058 
1455.607299  	88.258747 
1457.035765  	88.363972 
1458.464231  	88.239672 
1459.892698  	88.169516 
1461.321164  	88.242973 
1462.749631  	88.445598 
1464.178097  	88.583395 
1465.606564  	88.444376 
1467.035030  	88.391745 
1468.463497  	88.619904 
1469.891963  	89.065105 
1471.320429  	89.623581 
1472.748896  	90.071600 
1474.177362  	90.269345 
1475.605829  	90.435050 
1477.034295  	90.424118 
1478.462762  	90.298993 
1479.891228  	90.334332 
1481.319694  	90.292855 
1482.748161  	90.117465 
1484.176627  	90.045165 
1485.605094  	89.957097 
1487.033560  	89.763123 
1488.462027  	89.577566 
1489.890493  	89.250661 
1491.318959  	88.758126 
1492.747426  	88.482618 
1494.175892  	88.421392 
1495.604359  	88.278345 
1497.032825  	87.835016 
1498.461292  	87.404626 
1499.889758  	87.005909 
1501.318225  	86.643902 
1502.746691  	86.418089 
1504.175157  	86.436273 
1505.603624  	86.649771 
1507.032090  	85.842745 
1508.460557  	84.780808 
1509.889023  	84.471492 
1511.317490  	84.204812 
1512.745956  	83.761716 
1514.174422  	83.467664 
1515.602889  	83.396797 
1517.031355  	83.017877 
1518.459822  	82.714442 
1519.888288  	82.877693 
1521.316755  	82.749914 
1522.745221  	82.183157 
1524.173688  	82.093812 
1525.602154  	82.019639 
1527.030620  	81.738254 
1528.459087  	81.445157 
1529.887553  	81.204090 
1531.316020  	81.234340 
1532.744486  	81.309216 
1534.172953  	81.043985 
1535.601419  	80.954122 
1537.029885  	81.137821 
1538.458352  	81.494228 
1539.886818  	81.529272 
1541.315285  	81.311238 
1542.743751  	81.418127 
1544.172218  	81.504488 
1545.600684  	81.574699 
1547.029151  	81.770438 
1548.457617  	82.124845 
1549.886083  	82.525974 
1551.314550  	82.880218 
1552.743016  	83.299411 
1554.171483  	83.829701 
1555.599949  	84.229252 
1557.028416  	84.833451 
1558.456882  	85.701131 
1559.885348  	85.587481 
1561.313815  	85.779484 
1562.742281  	86.104027 
1564.170748  	86.428069 
1565.599214  	86.670139 
1567.027681  	86.932311 
1568.456147  	87.362293 
1569.884613  	87.617032 
1571.313080  	87.619843 
1572.741546  	87.577477 
1574.170013  	87.814114 
1575.598479  	88.028844 
1577.026946  	88.069399 
1578.455412  	88.063237 
1579.883879  	88.203495 
1581.312345  	88.335570 
1582.740811  	88.380220 
1584.169278  	88.466035 
1585.597744  	88.514345 
1587.026211  	88.534888 
1588.454677  	88.453861 
1589.883144  	88.301295 
1591.311610  	88.190826 
1592.740076  	88.077195 
1594.168543  	87.910918 
1595.597009  	87.777262 
1597.025476  	87.582028 
1598.453942  	87.425594 
1599.882409  	87.220053 
1601.310875  	86.922257 
1602.739342  	86.650615 
1604.167808  	86.369669 
1605.596274  	86.036450 
1607.024741  	85.748458 
1608.453207  	85.402327 
1609.881674  	85.048275 
1611.310140  	84.744073 
1612.738607  	84.326574 
1614.167073  	83.945905 
1615.595539  	83.646387 
1617.024006  	82.905201 
1618.452472  	82.237638 
1619.880939  	81.719725 
1621.309405  	81.267897 
1622.737872  	80.790317 
1624.166338  	79.989163 
1625.594804  	79.417335 
1627.023271  	78.990120 
1628.451737  	78.300767 
1629.880204  	77.788456 
1631.308670  	77.365113 
1632.737137  	77.060998 
1634.165603  	77.189160 
1635.594070  	76.857046 
1637.022536  	76.178254 
1638.451002  	76.213038 
1639.879469  	76.143789 
1641.307935  	76.130274 
1642.736402  	76.215392 
1644.164868  	76.288495 
1645.593335  	76.645580 
1647.021801  	76.713024 
1648.450267  	76.411142 
1649.878734  	76.622051 
1651.307200  	77.071373 
1652.735667  	77.695227 
1654.164133  	77.749656 
1655.592600  	77.590806 
1657.021066  	78.024854 
1658.449533  	78.547207 
1659.877999  	79.000238 
1661.306465  	79.794736 
1662.734932  	80.532572 
1664.163398  	81.005317 
1665.591865  	81.549453 
1667.020331  	82.041273 
1668.448798  	82.628654 
1669.877264  	83.225070 
1671.305730  	83.594852 
1672.734197  	84.075866 
1674.162663  	84.637195 
1675.591130  	85.080351 
1677.019596  	85.533338 
1678.448063  	85.987381 
1679.876529  	86.407905 
1681.304996  	86.891123 
1682.733462  	87.396464 
1684.161928  	87.948136 
1685.590395  	88.248666 
1687.018861  	88.467469 
1688.447328  	88.925584 
1689.875794  	89.353729 
1691.304261  	89.705858 
1692.732727  	90.153454 
1694.161193  	90.499397 
1695.589660  	90.854161 
1697.018126  	91.077973 
1698.446593  	91.383285 
1699.875059  	92.255451 
1701.303526  	92.354585 
1702.731992  	92.166709 
1704.160458  	92.574803 
1705.588925  	92.715901 
1707.017391  	92.614437 
1708.445858  	92.840566 
1709.874324  	92.967479 
1711.302791  	93.085897 
1712.731257  	93.272635 
1714.159724  	93.331055 
1715.588190  	93.550042 
1717.016656  	93.744632 
1718.445123  	93.504608 
1719.873589  	93.387591 
1721.302056  	93.341045 
1722.730522  	93.317974 
1724.158989  	93.301341 
1725.587455  	93.243708 
1727.015921  	93.221598 
1728.444388  	93.024146 
1729.872854  	92.616677 
1731.301321  	92.305127 
1732.729787  	92.392366 
1734.158254  	92.177654 
1735.586720  	91.450480 
1737.015187  	91.287656 
1738.443653  	91.439374 
1739.872119  	91.361889 
1741.300586  	91.265486 
1742.729052  	91.426559 
1744.157519  	91.579573 
1745.585985  	91.829031 
1747.014452  	92.306547 
1748.442918  	92.843742 
1749.871384  	93.506613 
1751.299851  	94.206741 
1752.728317  	94.691867 
1754.156784  	95.287329 
1755.585250  	95.812397 
1757.013717  	96.221589 
1758.442183  	96.581013 
1759.870650  	96.946183 
1761.299116  	97.273063 
1762.727582  	97.492745 
1764.156049  	97.660003 
1765.584515  	97.939622 
1767.012982  	98.072708 
1768.441448  	98.069255 
1769.869915  	98.169048 
1771.298381  	98.314920 
1772.726847  	98.272141 
1774.155314  	98.236185 
1775.583780  	98.226421 
1777.012247  	98.254391 
1778.440713  	98.330789 
1779.869180  	98.325387 
1781.297646  	98.279257 
1782.726112  	98.272547 
1784.154579  	98.295053 
1785.583045  	98.306296 
1787.011512  	98.305818 
1788.439978  	98.373414 
1789.868445  	98.469883 
1791.296911  	98.481472 
1792.725378  	98.440342 
1794.153844  	98.372545 
1795.582310  	98.325654 
1797.010777  	98.366918 
1798.439243  	98.400771 
1799.867710  	98.415554 
1801.296176  	98.402992 
1802.724643  	98.334450 
1804.153109  	98.324025 
1805.581575  	98.347090 
1807.010042  	98.351072 
1808.438508  	98.398841 
1809.866975  	98.423250 
1811.295441  	98.417376 
1812.723908  	98.398485 
1814.152374  	98.368233 
1815.580841  	98.405677 
1817.009307  	98.443952 
1818.437773  	98.424509 
1819.866240  	98.449579 
1821.294706  	98.421242 
1822.723173  	98.415655 
1824.151639  	98.495673 
1825.580106  	98.435235 
1827.008572  	98.388832 
1828.437038  	98.485829 
1829.865505  	98.510400 
1831.293971  	98.456922 
1832.722438  	98.443601 
1834.150904  	98.451195 
1835.579371  	98.443479 
1837.007837  	98.396619 
1838.436304  	98.394226 
1839.864770  	98.390616 
1841.293236  	98.366240 
1842.721703  	98.441877 
1844.150169  	98.469767 
1845.578636  	98.372876 
1847.007102  	98.411075 
1848.435569  	98.419577 
1849.864035  	98.372720 
1851.292501  	98.418881 
1852.720968  	98.411147 
1854.149434  	98.396155 
1855.577901  	98.419460 
1857.006367  	98.354981 
1858.434834  	98.334092 
1859.863300  	98.364579 
1861.291766  	98.375154 
1862.720233  	98.376862 
1864.148699  	98.346401 
1865.577166  	98.361603 
1867.005632  	98.434793 
1868.434099  	98.354403 
1869.862565  	98.288324 
1871.291032  	98.304437 
1872.719498  	98.301070 
1874.147964  	98.315501 
1875.576431  	98.306137 
1877.004897  	98.320640 
1878.433364  	98.355965 
1879.861830  	98.313767 
1881.290297  	98.312949 
1882.718763  	98.381258 
1884.147229  	98.403815 
1885.575696  	98.400085 
1887.004162  	98.376973 
1888.432629  	98.366576 
1889.861095  	98.337781 
1891.289562  	98.298388 
1892.718028  	98.364258 
1894.146495  	98.397815 
1895.574961  	98.342910 
1897.003427  	98.304885 
1898.431894  	98.252174 
1899.860360  	98.255737 
1901.288827  	98.344112 
1902.717293  	98.235956 
1904.145760  	98.273581 
1905.574226  	98.423784 
1907.002692  	98.279902 
1908.431159  	98.200410 
1909.859625  	98.295556 
1911.288092  	98.366218 
1912.716558  	98.381120 
1914.145025  	98.210890 
1915.573491  	98.189233 
1917.001957  	98.311410 
1918.430424  	98.223452 
1919.858890  	98.144289 
1921.287357  	98.248143 
1922.715823  	98.303990 
1924.144290  	98.403865 
1925.572756  	98.419226 
1927.001223  	98.297718 
1928.429689  	98.312991 
1929.858155  	98.309673 
1931.286622  	98.319254 
1932.715088  	98.323980 
1934.143555  	98.299991 
1935.572021  	98.379454 
1937.000488  	98.347730 
1938.428954  	98.270580 
1939.857420  	98.382516 
1941.285887  	98.383063 
1942.714353  	98.306644 
1944.142820  	98.333169 
1945.571286  	98.295034 
1946.999753  	98.313650 
1948.428219  	98.332285 
1949.856686  	98.164545 
1951.285152  	98.175630 
1952.713618  	98.153497 
1954.142085  	98.150471 
1955.570551  	98.317921 
1956.999018  	98.346727 
1958.427484  	98.332750 
1959.855951  	98.322245 
1961.284417  	98.250421 
1962.712883  	98.371485 
1964.141350  	98.421831 
1965.569816  	98.299179 
1966.998283  	98.301507 
1968.426749  	98.283513 
1969.855216  	98.268498 
1971.283682  	98.301400 
1972.712149  	98.243411 
1974.140615  	98.301563 
1975.569081  	98.342556 
1976.997548  	98.333528 
1978.426014  	98.415700 
1979.854481  	98.216759 
1981.282947  	98.042026 
1982.711414  	98.158094 
1984.139880  	98.154712 
1985.568346  	98.047943 
1986.996813  	98.022531 
1988.425279  	97.961780 
1989.853746  	98.032690 
1991.282212  	98.130877 
1992.710679  	98.241790 
1994.139145  	98.290525 
1995.567611  	98.233531 
1996.996078  	98.343413 
1998.424544  	98.318397 
1999.853011  	98.118841 
2001.281477  	98.249620 
2002.709944  	98.404636 
2004.138410  	98.376178 
2005.566877  	98.312032 
2006.995343  	98.095402 
2008.423809  	97.982405 
2009.852276  	97.855994 
2011.280742  	97.814655 
2012.709209  	98.166503 
2014.137675  	98.102322 
2015.566142  	97.833961 
2016.994608  	98.026736 
2018.423074  	97.982826 
2019.851541  	97.924382 
2021.280007  	98.053149 
2022.708474  	97.966961 
2024.136940  	98.148083 
2025.565407  	98.209388 
2026.993873  	98.051432 
2028.422340  	98.481680 
2029.850806  	98.633778 
2031.279272  	98.226065 
2032.707739  	97.986372 
2034.136205  	97.845659 
2035.564672  	97.882587 
2036.993138  	97.835409 
2038.421605  	97.684325 
2039.850071  	98.015124 
2041.278537  	98.198762 
2042.707004  	97.976990 
2044.135470  	97.907908 
2045.563937  	97.839054 
2046.992403  	97.991673 
2048.420870  	98.243809 
2049.849336  	98.081182 
2051.277803  	98.078607 
2052.706269  	98.242590 
2054.134735  	98.128180 
2055.563202  	97.992769 
2056.991668  	97.948292 
2058.420135  	97.996015 
2059.848601  	98.138576 
2061.277068  	98.125367 
2062.705534  	98.044632 
2064.134000  	98.029913 
2065.562467  	98.047839 
2066.990933  	98.047137 
2068.419400  	97.935055 
2069.847866  	97.957228 
2071.276333  	98.134239 
2072.704799  	98.135282 
2074.133265  	98.110767 
2075.561732  	98.103704 
2076.990198  	97.977213 
2078.418665  	97.899291 
2079.847131  	97.893767 
2081.275598  	97.974758 
2082.704064  	98.103971 
2084.132531  	98.082661 
2085.560997  	98.070410 
2086.989463  	98.106108 
2088.417930  	98.040027 
2089.846396  	98.013127 
2091.274863  	98.053258 
2092.703329  	98.122036 
2094.131796  	98.137101 
2095.560262  	97.981643 
2096.988728  	97.949650 
2098.417195  	98.020510 
2099.845661  	97.973635 
2101.274128  	98.075154 
2102.702594  	98.181534 
2104.131061  	98.109985 
2105.559527  	98.140394 
2106.987994  	98.112466 
2108.416460  	97.950528 
2109.844926  	97.886729 
2111.273393  	97.861208 
2112.701859  	97.907702 
2114.130326  	98.024216 
2115.558792  	98.053516 
2116.987259  	98.036115 
2118.415725  	97.948658 
2119.844191  	97.890386 
2121.272658  	97.966488 
2122.701124  	97.966539 
2124.129591  	97.945889 
2125.558057  	98.028438 
2126.986524  	98.105715 
2128.414990  	98.197833 
2129.843457  	98.218607 
2131.271923  	98.169663 
2132.700389  	98.176234 
2134.128856  	98.136789 
2135.557322  	98.138829 
2136.985789  	98.077428 
2138.414255  	97.800980 
2139.842722  	97.752244 
2141.271188  	97.854189 
2142.699654  	97.830130 
2144.128121  	97.918243 
2145.556587  	97.955165 
2146.985054  	97.955161 
2148.413520  	98.052896 
2149.841987  	97.945611 
2151.270453  	97.953724 
2152.698919  	98.138675 
2154.127386  	98.062224 
2155.555852  	97.967516 
2156.984319  	97.851327 
2158.412785  	97.640640 
2159.841252  	97.574624 
2161.269718  	97.651090 
2162.698185  	98.049440 
2164.126651  	98.185360 
2165.555117  	97.765767 
2166.983584  	97.709330 
2168.412050  	97.864471 
2169.840517  	97.819643 
2171.268983  	97.880510 
2172.697450  	97.939026 
2174.125916  	98.033847 
2175.554382  	98.113536 
2176.982849  	97.921187 
2178.411315  	97.867666 
2179.839782  	97.813269 
2181.268248  	97.603013 
2182.696715  	97.753445 
2184.125181  	97.933331 
2185.553648  	97.933436 
2186.982114  	98.054842 
2188.410580  	98.018387 
2189.839047  	97.900352 
2191.267513  	97.824522 
2192.695980  	97.644424 
2194.124446  	97.671430 
2195.552913  	97.846694 
2196.981379  	97.834973 
2198.409845  	97.768038 
2199.838312  	97.755141 
2201.266778  	97.860974 
2202.695245  	97.952110 
2204.123711  	97.894958 
2205.552178  	97.954918 
2206.980644  	97.985554 
2208.409111  	97.849923 
2209.837577  	97.880360 
2211.266043  	97.970532 
2212.694510  	98.003547 
2214.122976  	98.082332 
2215.551443  	98.013195 
2216.979909  	97.880997 
2218.408376  	97.861647 
2219.836842  	97.859558 
2221.265308  	97.870319 
2222.693775  	97.852916 
2224.122241  	97.806212 
2225.550708  	97.834956 
2226.979174  	97.901183 
2228.407641  	97.974306 
2229.836107  	97.990126 
2231.264573  	97.912027 
2232.693040  	97.867880 
2234.121506  	97.805374 
2235.549973  	97.690215 
2236.978439  	97.727674 
2238.406906  	97.917503 
2239.835372  	97.995944 
2241.263839  	97.884805 
2242.692305  	97.809625 
2244.120771  	97.833926 
2245.549238  	97.813492 
2246.977704  	97.836811 
2248.406171  	97.933466 
2249.834637  	97.999226 
2251.263104  	98.046072 
2252.691570  	98.040786 
2254.120036  	98.001705 
2255.548503  	97.967415 
2256.976969  	97.861110 
2258.405436  	97.785745 
2259.833902  	97.850675 
2261.262369  	97.892988 
2262.690835  	97.927700 
2264.119302  	97.950885 
2265.547768  	97.858873 
2266.976234  	97.802010 
2268.404701  	97.815455 
2269.833167  	97.806470 
2271.261634  	97.832767 
2272.690100  	97.848523 
2274.118567  	97.796918 
2275.547033  	97.758285 
2276.975499  	97.742056 
2278.403966  	97.786226 
2279.832432  	97.825189 
2281.260899  	97.782494 
2282.689365  	97.756593 
2284.117832  	97.791061 
2285.546298  	97.845485 
2286.974764  	97.890402 
2288.403231  	97.871695 
2289.831697  	97.812558 
2291.260164  	97.773933 
2292.688630  	97.761386 
2294.117097  	97.818200 
2295.545563  	97.847291 
2296.974030  	97.847014 
2298.402496  	97.883087 
2299.830962  	97.843095 
2301.259429  	97.795120 
2302.687895  	97.845109 
2304.116362  	97.852078 
2305.544828  	97.837888 
2306.973295  	97.863163 
2308.401761  	97.817785 
2309.830227  	97.749824 
2311.258694  	97.759916 
2312.687160  	97.800574 
2314.115627  	97.759696 
2315.544093  	97.640454 
2316.972560  	97.638218 
2318.401026  	97.754316 
2319.829493  	97.798202 
2321.257959  	97.775707 
2322.686425  	97.722672 
2324.114892  	97.699656 
2325.543358  	97.779284 
2326.971825  	97.805243 
2328.400291  	97.713428 
2329.828758  	97.621967 
2331.257224  	97.601231 
2332.685690  	97.717021 
2334.114157  	97.852765 
2335.542623  	97.830016 
2336.971090  	97.766072 
2338.399556  	97.785362 
2339.828023  	97.804061 
2341.256489  	97.750426 
2342.684956  	97.709042 
2344.113422  	97.742611 
2345.541888  	97.708052 
2346.970355  	97.659157 
2348.398821  	97.769846 
2349.827288  	97.912209 
2351.255754  	97.935446 
2352.684221  	97.813326 
2354.112687  	97.726792 
2355.541153  	97.840286 
2356.969620  	97.907746 
2358.398086  	97.807493 
2359.826553  	97.785255 
2361.255019  	97.773240 
2362.683486  	97.787574 
2364.111952  	97.879072 
2365.540418  	97.797120 
2366.968885  	97.678351 
2368.397351  	97.650527 
2369.825818  	97.598756 
2371.254284  	97.609011 
2372.682751  	97.631837 
2374.111217  	97.594597 
2375.539684  	97.585228 
2376.968150  	97.584873 
2378.396616  	97.621265 
2379.825083  	97.683578 
2381.253549  	97.686424 
2382.682016  	97.700300 
2384.110482  	97.719424 
2385.538949  	97.709517 
2386.967415  	97.751438 
2388.395881  	97.755530 
2389.824348  	97.687722 
2391.252814  	97.690023 
2392.681281  	97.704008 
2394.109747  	97.693258 
2395.538214  	97.705915 
2396.966680  	97.659389 
2398.395147  	97.602305 
2399.823613  	97.626732 
2401.252079  	97.672469 
2402.680546  	97.718906 
2404.109012  	97.732557 
2405.537479  	97.668948 
2406.965945  	97.589833 
2408.394412  	97.561231 
2409.822878  	97.599620 
2411.251344  	97.663386 
2412.679811  	97.681432 
2414.108277  	97.622247 
2415.536744  	97.530165 
2416.965210  	97.526300 
2418.393677  	97.600804 
2419.822143  	97.651682 
2421.250610  	97.697759 
2422.679076  	97.708365 
2424.107542  	97.659020 
2425.536009  	97.620962 
2426.964475  	97.560669 
2428.392942  	97.520402 
2429.821408  	97.559878 
2431.249875  	97.562105 
2432.678341  	97.550538 
2434.106807  	97.562178 
2435.535274  	97.521257 
2436.963740  	97.513299 
2438.392207  	97.539871 
2439.820673  	97.516683 
2441.249140  	97.492771 
2442.677606  	97.443688 
2444.106072  	97.410624 
2445.534539  	97.467023 
2446.963005  	97.470816 
2448.391472  	97.424626 
2449.819938  	97.459518 
2451.248405  	97.517285 
2452.676871  	97.525672 
2454.105338  	97.475223 
2455.533804  	97.406588 
2456.962270  	97.384966 
2458.390737  	97.390385 
2459.819203  	97.408352 
2461.247670  	97.426632 
2462.676136  	97.416091 
2464.104603  	97.418945 
2465.533069  	97.436853 
2466.961535  	97.433210 
2468.390002  	97.398106 
2469.818468  	97.349608 
2471.246935  	97.354162 
2472.675401  	97.366776 
2474.103868  	97.353155 
2475.532334  	97.400586 
2476.960801  	97.422262 
2478.389267  	97.377764 
2479.817733  	97.358086 
2481.246200  	97.276505 
2482.674666  	97.210193 
2484.103133  	97.276034 
2485.531599  	97.275993 
2486.960066  	97.225170 
2488.388532  	97.243490 
2489.816998  	97.235103 
2491.245465  	97.257316 
2492.673931  	97.328617 
2494.102398  	97.351484 
2495.530864  	97.375379 
2496.959331  	97.350743 
2498.387797  	97.269187 
2499.816264  	97.259719 
2501.244730  	97.255642 
2502.673196  	97.234514 
2504.101663  	97.253957 
2505.530129  	97.234092 
2506.958596  	97.221984 
2508.387062  	97.260760 
2509.815529  	97.238879 
2511.243995  	97.214038 
2512.672461  	97.261242 
2514.100928  	97.281774 
2515.529394  	97.253414 
2516.957861  	97.228040 
2518.386327  	97.205650 
2519.814794  	97.178329 
2521.243260  	97.138647 
2522.671726  	97.100840 
2524.100193  	97.124130 
2525.528659  	97.201833 
2526.957126  	97.236962 
2528.385592  	97.205210 
2529.814059  	97.159568 
2531.242525  	97.126036 
2532.670992  	97.137854 
2534.099458  	97.173513 
2535.527924  	97.151837 
2536.956391  	97.097445 
2538.384857  	97.078227 
2539.813324  	97.104584 
2541.241790  	97.130889 
2542.670257  	97.071836 
2544.098723  	96.997544 
2545.527189  	97.034041 
2546.955656  	97.066442 
2548.384122  	97.004050 
2549.812589  	96.966224 
2551.241055  	96.983576 
2552.669522  	96.988365 
2554.097988  	96.998271 
2555.526455  	97.033794 
2556.954921  	97.043695 
2558.383387  	97.013597 
2559.811854  	96.986554 
2561.240320  	96.959932 
2562.668787  	96.942042 
2564.097253  	96.950949 
2565.525720  	96.932711 
2566.954186  	96.922727 
2568.382652  	96.992366 
2569.811119  	97.036601 
2571.239585  	96.983200 
2572.668052  	96.907544 
2574.096518  	96.887144 
2575.524985  	96.938863 
2576.953451  	96.976844 
2578.381918  	96.948650 
2579.810384  	96.895833 
2581.238850  	96.826476 
2582.667317  	96.806316 
2584.095783  	96.868496 
2585.524250  	96.896675 
2586.952716  	96.876186 
2588.381183  	96.847658 
2589.809649  	96.800418 
2591.238115  	96.793199 
2592.666582  	96.811772 
2594.095048  	96.799829 
2595.523515  	96.811413 
2596.951981  	96.839979 
2598.380448  	96.828394 
2599.808914  	96.778614 
2601.237380  	96.730883 
2602.665847  	96.742546 
2604.094313  	96.764233 
2605.522780  	96.730895 
2606.951246  	96.697532 
2608.379713  	96.675174 
2609.808179  	96.660655 
2611.236646  	96.675763 
2612.665112  	96.671646 
2614.093578  	96.660973 
2615.522045  	96.666927 
2616.950511  	96.643543 
2618.378978  	96.636584 
2619.807444  	96.659973 
2621.235911  	96.644612 
2622.664377  	96.619717 
2624.092843  	96.612892 
2625.521310  	96.607678 
2626.949776  	96.614325 
2628.378243  	96.607019 
2629.806709  	96.581461 
2631.235176  	96.570972 
2632.663642  	96.564767 
2634.092109  	96.560744 
2635.520575  	96.565260 
2636.949041  	96.560002 
2638.377508  	96.550653 
2639.805974  	96.541753 
2641.234441  	96.518192 
2642.662907  	96.500222 
2644.091374  	96.511614 
2645.519840  	96.514337 
2646.948306  	96.487001 
2648.376773  	96.475635 
2649.805239  	96.474432 
2651.233706  	96.442133 
2652.662172  	96.410941 
2654.090639  	96.405877 
2655.519105  	96.404272 
2656.947571  	96.386353 
2658.376038  	96.349964 
2659.804504  	96.348394 
2661.232971  	96.390534 
2662.661437  	96.385706 
2664.089904  	96.339020 
2665.518370  	96.332295 
2666.946837  	96.354940 
2668.375303  	96.367287 
2669.803769  	96.361343 
2671.232236  	96.342737 
2672.660702  	96.326114 
2674.089169  	96.318008 
2675.517635  	96.328225 
2676.946102  	96.336668 
2678.374568  	96.313479 
2679.803034  	96.293264 
2681.231501  	96.290331 
2682.659967  	96.285438 
2684.088434  	96.291007 
2685.516900  	96.291197 
2686.945367  	96.275928 
2688.373833  	96.262762 
2689.802300  	96.236694 
2691.230766  	96.216731 
2692.659232  	96.225946 
2694.087699  	96.226417 
2695.516165  	96.210429 
2696.944632  	96.195698 
2698.373098  	96.185461 
2699.801565  	96.179986 
2701.230031  	96.168294 
2702.658497  	96.164775 
2704.086964  	96.167892 
2705.515430  	96.145877 
2706.943897  	96.118127 
2708.372363  	96.089745 
2709.800830  	96.061630 
2711.229296  	96.077751 
2712.657763  	96.092616 
2714.086229  	96.058403 
2715.514695  	96.037408 
2716.943162  	96.040940 
2718.371628  	96.039066 
2719.800095  	96.029206 
2721.228561  	95.995098 
2722.657028  	95.968278 
2724.085494  	95.972470 
2725.513960  	95.956836 
2726.942427  	95.924093 
2728.370893  	95.912020 
2729.799360  	95.906786 
2731.227826  	95.899376 
2732.656293  	95.894091 
2734.084759  	95.885666 
2735.513225  	95.872090 
2736.941692  	95.845259 
2738.370158  	95.810765 
2739.798625  	95.797705 
2741.227091  	95.799906 
2742.655558  	95.788649 
2744.084024  	95.786625 
2745.512491  	95.797399 
2746.940957  	95.770501 
2748.369423  	95.738154 
2749.797890  	95.748338 
2751.226356  	95.743350 
2752.654823  	95.708543 
2754.083289  	95.687886 
2755.511756  	95.682288 
2756.940222  	95.699161 
2758.368688  	95.714221 
2759.797155  	95.680118 
2761.225621  	95.637021 
2762.654088  	95.626940 
2764.082554  	95.625822 
2765.511021  	95.601659 
2766.939487  	95.560632 
2768.367954  	95.559411 
2769.796420  	95.581827 
2771.224886  	95.547344 
2772.653353  	95.493004 
2774.081819  	95.482972 
2775.510286  	95.490505 
2776.938752  	95.489101 
2778.367219  	95.473856 
2779.795685  	95.449550 
2781.224151  	95.417654 
2782.652618  	95.376393 
2784.081084  	95.358528 
2785.509551  	95.355784 
2786.938017  	95.332544 
2788.366484  	95.320155 
2789.794950  	95.319689 
2791.223417  	95.297189 
2792.651883  	95.263626 
2794.080349  	95.223333 
2795.508816  	95.195872 
2796.937282  	95.204349 
2798.365749  	95.207889 
2799.794215  	95.182928 
2801.222682  	95.153232 
2802.651148  	95.132761 
2804.079614  	95.109576 
2805.508081  	95.073751 
2806.936547  	95.063054 
2808.365014  	95.069662 
2809.793480  	95.031029 
2811.221947  	94.986890 
2812.650413  	94.974097 
2814.078879  	94.945744 
2815.507346  	94.910783 
2816.935812  	94.872529 
2818.364279  	94.805395 
2819.792745  	94.747953 
2821.221212  	94.711067 
2822.649678  	94.672199 
2824.078145  	94.639515 
2825.506611  	94.601266 
2826.935077  	94.552893 
2828.363544  	94.506988 
2829.792010  	94.451930 
2831.220477  	94.386894 
2832.648943  	94.326923 
2834.077410  	94.269590 
2835.505876  	94.179288 
2836.934342  	94.037992 
2838.362809  	93.900302 
2839.791275  	93.786568 
2841.219742  	93.639611 
2842.648208  	93.432315 
2844.076675  	93.163878 
2845.505141  	92.842322 
2846.933608  	92.497082 
2848.362074  	92.148757 
2849.790540  	91.848614 
2851.219007  	91.649031 
2852.647473  	91.536968 
2854.075940  	91.514211 
2855.504406  	91.574513 
2856.932873  	91.695596 
2858.361339  	91.884984 
2859.789805  	92.067937 
2861.218272  	92.198584 
2862.646738  	92.350737 
2864.075205  	92.496978 
2865.503671  	92.555534 
2866.932138  	92.547294 
2868.360604  	92.512188 
2869.789071  	92.475657 
2871.217537  	92.456121 
2872.646003  	92.450169 
2874.074470  	92.460790 
2875.502936  	92.515803 
2876.931403  	92.645214 
2878.359869  	92.779059 
2879.788336  	92.820336 
2881.216802  	92.818638 
2882.645268  	92.827234 
2884.073735  	92.824863 
2885.502201  	92.820668 
2886.930668  	92.790747 
2888.359134  	92.715726 
2889.787601  	92.642525 
2891.216067  	92.564219 
2892.644533  	92.467250 
2894.073000  	92.378664 
2895.501466  	92.279533 
2896.929933  	92.172824 
2898.358399  	92.081589 
2899.786866  	91.964064 
2901.215332  	91.800838 
2902.643799  	91.629040 
2904.072265  	91.478547 
2905.500731  	91.338646 
2906.929198  	91.152260 
2908.357664  	90.917992 
2909.786131  	90.707566 
2911.214597  	90.512877 
2912.643064  	90.244738 
2914.071530  	89.902729 
2915.499996  	89.598421 
2916.928463  	89.360283 
2918.356929  	89.100151 
2919.785396  	88.841630 
2921.213862  	88.688705 
2922.642329  	88.634146 
2924.070795  	88.643025 
2925.499262  	88.712345 
2926.927728  	88.830567 
2928.356194  	88.983426 
2929.784661  	89.159512 
2931.213127  	89.364091 
2932.641594  	89.584674 
2934.070060  	89.815620 
2935.498527  	90.076301 
2936.926993  	90.338190 
2938.355459  	90.587092 
2939.783926  	90.820545 
2941.212392  	91.006592 
2942.640859  	91.174560 
2944.069325  	91.336267 
2945.497792  	91.452376 
2946.926258  	91.520180 
2948.354724  	91.524398 
2949.783191  	91.479578 
2951.211657  	91.412534 
2952.640124  	91.293652 
2954.068590  	91.187316 
2955.497057  	91.155638 
2956.925523  	91.133143 
2958.353990  	91.136322 
2959.782456  	91.206172 
2961.210922  	91.316436 
2962.639389  	91.499541 
2964.067855  	91.732653 
2965.496322  	91.945913 
2966.924788  	92.153976 
2968.353255  	92.352828 
2969.781721  	92.527510 
2971.210187  	92.695291 
2972.638654  	92.844710 
2974.067120  	92.972035 
2975.495587  	93.106056 
2976.924053  	93.258762 
2978.352520  	93.394506 
2979.780986  	93.493551 
2981.209453  	93.587992 
2982.637919  	93.657676 
2984.066385  	93.688901 
2985.494852  	93.732428 
2986.923318  	93.770332 
2988.351785  	93.800258 
2989.780251  	93.868724 
2991.208718  	93.929481 
2992.637184  	93.971439 
2994.065650  	94.022408 
2995.494117  	94.033403 
2996.922583  	94.022959 
2998.351050  	94.033314 
2999.779516  	94.027508 
3001.207983  	94.001549 
3002.636449  	93.974122 
3004.064916  	93.966736 
3005.493382  	93.992558 
3006.921848  	93.999684 
3008.350315  	93.978818 
3009.778781  	93.956386 
3011.207248  	93.938520 
3012.635714  	93.971674 
3014.064181  	94.008734 
3015.492647  	93.953531 
3016.921113  	93.888401 
3018.349580  	93.892087 
3019.778046  	93.913007 
3021.206513  	93.920879 
3022.634979  	93.905520 
3024.063446  	93.867009 
3025.491912  	93.831830 
3026.920378  	93.812892 
3028.348845  	93.812583 
3029.777311  	93.800534 
3031.205778  	93.761441 
3032.634244  	93.739237 
3034.062711  	93.730070 
3035.491177  	93.707641 
3036.919644  	93.679253 
3038.348110  	93.634104 
3039.776576  	93.590440 
3041.205043  	93.577833 
3042.633509  	93.578334 
3044.061976  	93.585918 
3045.490442  	93.580139 
3046.918909  	93.532716 
3048.347375  	93.481745 
3049.775841  	93.452408 
3051.204308  	93.426570 
3052.632774  	93.401435 
3054.061241  	93.372734 
3055.489707  	93.344711 
3056.918174  	93.327900 
3058.346640  	93.312298 
3059.775107  	93.288640 
3061.203573  	93.247329 
3062.632039  	93.210903 
3064.060506  	93.215614 
3065.488972  	93.213740 
3066.917439  	93.181367 
3068.345905  	93.190865 
3069.774372  	93.229190 
3071.202838  	93.232903 
3072.631304  	93.232446 
3074.059771  	93.240191 
3075.488237  	93.228752 
3076.916704  	93.222919 
3078.345170  	93.218527 
3079.773637  	93.188485 
3081.202103  	93.167640 
3082.630570  	93.162611 
3084.059036  	93.147552 
3085.487502  	93.150681 
3086.915969  	93.180263 
3088.344435  	93.198086 
3089.772902  	93.196031 
3091.201368  	93.186487 
3092.629835  	93.184386 
3094.058301  	93.198405 
3095.486767  	93.199643 
3096.915234  	93.176651 
3098.343700  	93.173150 
3099.772167  	93.189181 
3101.200633  	93.174212 
3102.629100  	93.159365 
3104.057566  	93.198981 
3105.486032  	93.229070 
3106.914499  	93.205313 
3108.342965  	93.181069 
3109.771432  	93.156458 
3111.199898  	93.123539 
3112.628365  	93.119354 
3114.056831  	93.111421 
3115.485298  	93.093029 
3116.913764  	93.123449 
3118.342230  	93.152866 
3119.770697  	93.120404 
3121.199163  	93.085505 
3122.627630  	93.077240 
3124.056096  	93.056259 
3125.484563  	93.016381 
3126.913029  	92.970451 
3128.341495  	92.929490 
3129.769962  	92.920860 
3131.198428  	92.934522 
3132.626895  	92.920301 
3134.055361  	92.881814 
3135.483828  	92.848423 
3136.912294  	92.813314 
3138.340761  	92.785427 
3139.769227  	92.751005 
3141.197693  	92.698585 
3142.626160  	92.698881 
3144.054626  	92.725376 
3145.483093  	92.686350 
3146.911559  	92.643617 
3148.340026  	92.628235 
3149.768492  	92.600267 
3151.196958  	92.598515 
3152.625425  	92.578848 
3154.053891  	92.499847 
3155.482358  	92.462114 
3156.910824  	92.455901 
3158.339291  	92.418807 
3159.767757  	92.391446 
3161.196224  	92.369287 
3162.624690  	92.346975 
3164.053156  	92.343182 
3165.481623  	92.313253 
3166.910089  	92.258841 
3168.338556  	92.207889 
3169.767022  	92.155627 
3171.195489  	92.140551 
3172.623955  	92.149964 
3174.052421  	92.107527 
3175.480888  	92.030042 
3176.909354  	91.993913 
3178.337821  	92.016404 
3179.766287  	92.026063 
3181.194754  	91.968018 
3182.623220  	91.907458 
3184.051686  	91.892780 
3185.480153  	91.867793 
3186.908619  	91.813992 
3188.337086  	91.771306 
3189.765552  	91.756094 
3191.194019  	91.766554 
3192.622485  	91.763184 
3194.050952  	91.710084 
3195.479418  	91.674001 
3196.907884  	91.700696 
3198.336351  	91.696673 
3199.764817  	91.625923 
3201.193284  	91.577466 
3202.621750  	91.583879 
3204.050217  	91.607884 
3205.478683  	91.597953 
3206.907149  	91.541717 
3208.335616  	91.502085 
3209.764082  	91.478735 
3211.192549  	91.439092 
3212.621015  	91.427275 
3214.049482  	91.420920 
3215.477948  	91.392576 
3216.906415  	91.394691 
3218.334881  	91.394853 
3219.763347  	91.377461 
3221.191814  	91.382187 
3222.620280  	91.363357 
3224.048747  	91.341107 
3225.477213  	91.352644 
3226.905680  	91.320715 
3228.334146  	91.264251 
3229.762612  	91.253722 
3231.191079  	91.255652 
3232.619545  	91.233949 
3234.048012  	91.175407 
3235.476478  	91.109216 
3236.904945  	91.084737 
3238.333411  	91.077924 
3239.761878  	91.059542 
3241.190344  	91.023746 
3242.618810  	90.988858 
3244.047277  	90.986664 
3245.475743  	90.946237 
3246.904210  	90.850498 
3248.332676  	90.814694 
3249.761143  	90.803142 
3251.189609  	90.715802 
3252.618075  	90.611621 
3254.046542  	90.561498 
3255.475008  	90.545334 
3256.903475  	90.511663 
3258.331941  	90.443460 
3259.760408  	90.364146 
3261.188874  	90.291967 
3262.617340  	90.250578 
3264.045807  	90.220575 
3265.474273  	90.150760 
3266.902740  	90.092044 
3268.331206  	90.083399 
3269.759673  	90.054096 
3271.188139  	89.989221 
3272.616606  	89.943653 
3274.045072  	89.927119 
3275.473538  	89.902263 
3276.902005  	89.862144 
3278.330471  	89.837337 
3279.758938  	89.813400 
3281.187404  	89.788943 
3282.615871  	89.783804 
3284.044337  	89.758516 
3285.472803  	89.749822 
3286.901270  	89.812698 
3288.329736  	89.868519 
3289.758203  	89.890177 
3291.186669  	89.902571 
3292.615136  	89.908811 
3294.043602  	89.963029 
3295.472069  	90.012975 
3296.900535  	89.976989 
3298.329001  	89.947487 
3299.757468  	89.976490 
3301.185934  	90.017777 
3302.614401  	90.072036 
3304.042867  	90.154935 
3305.471334  	90.260804 
3306.899800  	90.334566 
3308.328266  	90.353072 
3309.756733  	90.363207 
3311.185199  	90.370101 
3312.613666  	90.416649 
3314.042132  	90.528587 
3315.470599  	90.589181 
3316.899065  	90.586100 
3318.327531  	90.607468 
3319.755998  	90.667662 
3321.184464  	90.771115 
3322.612931  	90.855944 
3324.041397  	90.876141 
3325.469864  	90.915344 
3326.898330  	90.967113 
3328.326797  	90.988282 
3329.755263  	91.035573 
3331.183729  	91.101818 
3332.612196  	91.147805 
3334.040662  	91.187530 
3335.469129  	91.236302 
3336.897595  	91.309505 
3338.326062  	91.384387 
3339.754528  	91.424125 
3341.182994  	91.439869 
3342.611461  	91.467593 
3344.039927  	91.541084 
3345.468394  	91.625709 
3346.896860  	91.677044 
3348.325327  	91.731805 
3349.753793  	91.790271 
3351.182260  	91.835835 
3352.610726  	91.896649 
3354.039192  	91.933636 
3355.467659  	91.931388 
3356.896125  	91.971263 
3358.324592  	92.051309 
3359.753058  	92.095296 
3361.181525  	92.109417 
3362.609991  	92.158983 
3364.038457  	92.235289 
3365.466924  	92.277571 
3366.895390  	92.315627 
3368.323857  	92.391862 
3369.752323  	92.454490 
3371.180790  	92.488378 
3372.609256  	92.527198 
3374.037723  	92.555168 
3375.466189  	92.559565 
3376.894655  	92.575202 
3378.323122  	92.627011 
3379.751588  	92.692357 
3381.180055  	92.746586 
3382.608521  	92.792949 
3384.036988  	92.822727 
3385.465454  	92.834803 
3386.893920  	92.854630 
3388.322387  	92.895856 
3389.750853  	92.959477 
3391.179320  	93.017504 
3392.607786  	93.052702 
3394.036253  	93.095238 
3395.464719  	93.119055 
3396.893185  	93.105496 
3398.321652  	93.142438 
3399.750118  	93.228969 
3401.178585  	93.248746 
3402.607051  	93.222379 
3404.035518  	93.269723 
3405.463984  	93.355809 
3406.892451  	93.376644 
3408.320917  	93.384905 
3409.749383  	93.431838 
3411.177850  	93.456684 
3412.606316  	93.479627 
3414.034783  	93.529030 
3415.463249  	93.561310 
3416.891716  	93.602195 
3418.320182  	93.641775 
3419.748648  	93.639193 
3421.177115  	93.676712 
3422.605581  	93.780523 
3424.034048  	93.863504 
3425.462514  	93.883982 
3426.890981  	93.855222 
3428.319447  	93.846930 
3429.747914  	93.882691 
3431.176380  	93.919839 
3432.604846  	93.978182 
3434.033313  	94.056613 
3435.461779  	94.113434 
3436.890246  	94.146128 
3438.318712  	94.159310 
3439.747179  	94.198299 
3441.175645  	94.260933 
3442.604111  	94.281384 
3444.032578  	94.304296 
3445.461044  	94.330673 
3446.889511  	94.299361 
3448.317977  	94.302360 
3449.746444  	94.350040 
3451.174910  	94.366249 
3452.603377  	94.412575 
3454.031843  	94.479321 
3455.460309  	94.505569 
3456.888776  	94.529836 
3458.317242  	94.554471 
3459.745709  	94.581984 
3461.174175  	94.626706 
3462.602642  	94.638168 
3464.031108  	94.632451 
3465.459574  	94.651340 
3466.888041  	94.689240 
3468.316507  	94.774740 
3469.744974  	94.863880 
3471.173440  	94.883209 
3472.601907  	94.903812 
3474.030373  	94.964576 
3475.458839  	94.980855 
3476.887306  	94.973643 
3478.315772  	95.024915 
3479.744239  	95.086723 
3481.172705  	95.085886 
3482.601172  	95.076194 
3484.029638  	95.152599 
3485.458105  	95.273643 
3486.886571  	95.330338 
3488.315037  	95.332752 
3489.743504  	95.347816 
3491.171970  	95.362395 
3492.600437  	95.397220 
3494.028903  	95.443813 
3495.457370  	95.436696 
3496.885836  	95.464245 
3498.314302  	95.560130 
3499.742769  	95.591828 
3501.171235  	95.596833 
3502.599702  	95.640658 
3504.028168  	95.653151 
3505.456635  	95.675179 
3506.885101  	95.748012 
3508.313568  	95.807082 
3509.742034  	95.805431 
3511.170500  	95.780300 
3512.598967  	95.828377 
3514.027433  	95.905216 
3515.455900  	95.939171 
3516.884366  	95.997998 
3518.312833  	96.015009 
3519.741299  	95.965486 
3521.169765  	96.020278 
3522.598232  	96.075438 
3524.026698  	96.037605 
3525.455165  	96.083872 
3526.883631  	96.129958 
3528.312098  	96.150102 
3529.740564  	96.263276 
3531.169031  	96.319775 
3532.597497  	96.349047 
3534.025963  	96.438072 
3535.454430  	96.413637 
3536.882896  	96.349099 
3538.311363  	96.416563 
3539.739829  	96.474452 
3541.168296  	96.506320 
3542.596762  	96.561754 
3544.025228  	96.601408 
3545.453695  	96.622238 
3546.882161  	96.621034 
3548.310628  	96.630690 
3549.739094  	96.709973 
3551.167561  	96.793780 
3552.596027  	96.790679 
3554.024493  	96.802611 
3555.452960  	96.893337 
3556.881426  	96.947286 
3558.309893  	96.915338 
3559.738359  	96.881571 
3561.166826  	96.892973 
3562.595292  	96.955963 
3564.023759  	97.079672 
3565.452225  	97.146121 
3566.880691  	97.026504 
3568.309158  	96.955838 
3569.737624  	97.084122 
3571.166091  	97.194866 
3572.594557  	97.237059 
3574.023024  	97.282548 
3575.451490  	97.367231 
3576.879956  	97.392999 
3578.308423  	97.334493 
3579.736889  	97.284089 
3581.165356  	97.320324 
3582.593822  	97.413381 
3584.022289  	97.485450 
3585.450755  	97.508456 
3586.879222  	97.509327 
3588.307688  	97.493551 
3589.736154  	97.546630 
3591.164621  	97.665817 
3592.593087  	97.735424 
3594.021554  	97.712404 
3595.450020  	97.721540 
3596.878487  	97.755826 
3598.306953  	97.777617 
3599.735419  	97.767971 
3601.163886  	97.689177 
3602.592352  	97.674587 
3604.020819  	97.793903 
3605.449285  	97.931129 
3606.877752  	98.024482 
3608.306218  	98.051957 
3609.734685  	97.999707 
3611.163151  	98.009542 
3612.591617  	98.018750 
3614.020084  	97.980762 
3615.448550  	98.085436 
3616.877017  	98.283518 
3618.305483  	98.338275 
3619.733950  	98.149376 
3621.162416  	98.000282 
3622.590882  	98.078230 
3624.019349  	98.232242 
3625.447815  	98.333147 
3626.876282  	98.480444 
3628.304748  	98.619438 
3629.733215  	98.284694 
3631.161681  	98.167170 
3632.590147  	98.329568 
3634.018614  	98.385524 
3635.447080  	98.421106 
3636.875547  	98.562193 
3638.304013  	98.588706 
3639.732480  	98.504625 
3641.160946  	98.479127 
3642.589413  	98.420698 
3644.017879  	98.501496 
3645.446345  	98.723580 
3646.874812  	98.740675 
3648.303278  	98.558164 
3649.731745  	98.555166 
3651.160211  	98.558734 
3652.588678  	98.621516 
3654.017144  	98.792509 
3655.445610  	98.941740 
3656.874077  	98.822117 
3658.302543  	98.659489 
3659.731010  	98.675429 
3661.159476  	98.653210 
3662.587943  	98.558915 
3664.016409  	98.647325 
3665.444876  	98.731229 
3666.873342  	98.779043 
3668.301808  	98.918935 
3669.730275  	98.968190 
3671.158741  	98.731436 
3672.587208  	98.806985 
3674.015674  	99.094993 
3675.444141  	99.072224 
3676.872607  	98.873932 
3678.301073  	98.958057 
3679.729540  	98.958605 
3681.158006  	98.872056 
3682.586473  	98.873950 
3684.014939  	98.839972 
3685.443406  	98.905768 
3686.871872  	99.147547 
3688.300338  	99.193932 
3689.728805  	98.999303 
3691.157271  	98.925059 
3692.585738  	98.839577 
3694.014204  	98.831547 
3695.442671  	98.928356 
3696.871137  	99.017633 
3698.299604  	99.109179 
3699.728070  	99.136251 
3701.156536  	99.030875 
3702.585003  	98.864053 
3704.013469  	98.817081 
3705.441936  	98.857994 
3706.870402  	98.950222 
3708.298869  	99.019491 
3709.727335  	99.002789 
3711.155801  	98.958880 
3712.584268  	98.910520 
3714.012734  	98.806691 
3715.441201  	98.786401 
3716.869667  	98.868918 
3718.298134  	98.889927 
3719.726600  	98.858317 
3721.155067  	98.883568 
3722.583533  	98.758183 
3724.011999  	98.635994 
3725.440466  	98.726614 
3726.868932  	98.724370 
3728.297399  	98.774498 
3729.725865  	99.087010 
3731.154332  	99.199816 
3732.582798  	99.071341 
3734.011264  	98.961579 
3735.439731  	98.827834 
3736.868197  	98.746316 
3738.296664  	98.920918 
3739.725130  	98.975301 
3741.153597  	98.943830 
3742.582063  	99.111404 
3744.010530  	99.240905 
3745.438996  	98.893313 
3746.867462  	98.879712 
3748.295929  	99.036824 
3749.724395  	99.026691 
3751.152862  	98.909219 
3752.581328  	98.863471 
3754.009795  	98.876354 
3755.438261  	98.955846 
3756.866727  	98.986221 
3758.295194  	98.937843 
3759.723660  	98.864592 
3761.152127  	98.774266 
3762.580593  	98.831791 
3764.009060  	98.982667 
3765.437526  	98.956964 
3766.865992  	98.931217 
3768.294459  	99.075653 
3769.722925  	99.065518 
3771.151392  	98.911820 
3772.579858  	98.968708 
3774.008325  	99.058290 
3775.436791  	99.008030 
3776.865258  	99.038225 
3778.293724  	99.196013 
3779.722190  	99.063286 
3781.150657  	98.875012 
3782.579123  	99.065780 
3784.007590  	99.223103 
3785.436056  	99.120228 
3786.864523  	99.085575 
3788.292989  	99.076255 
3789.721455  	99.015720 
3791.149922  	99.010562 
3792.578388  	98.997609 
3794.006855  	99.056822 
3795.435321  	99.182177 
3796.863788  	99.088342 
3798.292254  	98.953372 
3799.720721  	99.119453 
3801.149187  	99.248666 
3802.577653  	98.921332 
3804.006120  	98.875772 
3805.434586  	99.115408 
3806.863053  	99.136545 
3808.291519  	98.864387 
3809.719986  	98.833948 
3811.148452  	98.875921 
3812.576918  	98.892053 
3814.005385  	99.006623 
3815.433851  	99.041188 
3816.862318  	98.836694 
3818.290784  	98.894568 
3819.719251  	99.150648 
3821.147717  	99.162770 
3822.576184  	98.840672 
3824.004650  	98.876585 
3825.433116  	99.054206 
3826.861583  	98.967932 
3828.290049  	98.846935 
3829.718516  	98.994874 
3831.146982  	99.096254 
3832.575449  	99.018763 
3834.003915  	98.947417 
3835.432381  	98.868365 
3836.860848  	98.871718 
3838.289314  	98.932279 
3839.717781  	98.839892 
3841.146247  	98.875465 
3842.574714  	99.023503 
3844.003180  	98.950498 
3845.431646  	98.836834 
3846.860113  	98.924568 
3848.288579  	99.004667 
3849.717046  	99.008858 
3851.145512  	99.113361 
3852.573979  	99.097232 
3854.002445  	98.609396 
3855.430912  	98.645831 
3856.859378  	98.834359 
3858.287844  	98.930590 
3859.716311  	99.042566 
3861.144777  	99.112821 
3862.573244  	99.072517 
3864.001710  	98.979140 
3865.430177  	98.779195 
3866.858643  	98.828484 
3868.287109  	99.112056 
3869.715576  	99.096165 
3871.144042  	98.832443 
3872.572509  	98.935777 
3874.000975  	98.965222 
3875.429442  	98.835086 
3876.857908  	98.921870 
3878.286375  	99.138965 
3879.714841  	99.247372 
3881.143307  	99.060069 
3882.571774  	98.980225 
3884.000240  	99.134359 
3885.428707  	99.056218 
3886.857173  	98.730628 
3888.285640  	98.828293 
3889.714106  	99.076570 
3891.142572  	99.099854 
3892.571039  	98.950412 
3893.999505  	98.960176 
3895.427972  	99.073366 
3896.856438  	99.145879 
3898.284905  	99.109059 
3899.713371  	99.015485 
3901.141838  	99.031451 
3902.570304  	99.076298 
3903.998770  	98.968745 
3905.427237  	98.869153 
3906.855703  	98.914647 
3908.284170  	98.990107 
3909.712636  	99.076118 
3911.141103  	99.121827 
3912.569569  	99.050145 
3913.998035  	99.003812 
3915.426502  	98.967238 
3916.854968  	98.875764 
3918.283435  	98.898994 
3919.711901  	98.975264 
3921.140368  	99.039791 
3922.568834  	99.128252 
3923.997300  	99.086438 
3925.425767  	98.964042 
3926.854233  	98.989210 
3928.282700  	99.041643 
3929.711166  	99.071670 
3931.139633  	99.076200 
3932.568099  	98.961433 
3933.996566  	98.881350 
3935.425032  	98.946296 
3936.853498  	98.994040 
3938.281965  	98.957568 
3939.710431  	98.957113 
3941.138898  	99.045799 
3942.567364  	99.043629 
3943.995831  	98.918642 
3945.424297  	98.949566 
3946.852763  	99.069559 
3948.281230  	99.035977 
3949.709696  	98.936335 
3951.138163  	98.974854 
3952.566629  	99.067824 
3953.995096  	99.049706 
3955.423562  	98.959715 
3956.852029  	98.943022 
3958.280495  	98.974612 
3959.708961  	98.998609 
3961.137428  	99.015495 
3962.565894  	98.975645 
3963.994361  	98.944173 
3965.422827  	98.972515 
3966.851294  	98.970798 
3968.279760  	98.968218 
3969.708226  	98.991815 
3971.136693  	98.988779 
3972.565159  	99.001102 
3973.993626  	99.014788 
3975.422092  	99.006554 
3976.850559  	99.022934 
3978.279025  	99.025635 
3979.707491  	99.035433 
3981.135958  	99.084484 
3982.564424  	99.084757 
3983.992891  	99.047798 
3985.421357  	99.014859 
3986.849824  	98.977790 
3988.278290  	98.994631 
3989.706757  	99.031831 
3991.135223  	99.027293 
3992.563689  	99.031760 
3993.992156  	99.037147 
3995.420622  	99.033935 
3996.849089  	99.049049 
3998.277555  	99.025302 
3999.706022  	98.976996 
