##TITLE=No Description
##DATA TYPE=INFRARED SPECTRUM
##XUNITS=1/CM
##YUNITS=%T
399.970602  	105.508087 
401.399069  	101.758781 
402.827535  	101.452394 
404.256001  	103.277172 
405.684468  	103.588543 
407.112934  	102.092727 
408.541401  	101.008782 
409.969867  	99.417716 
411.398334  	98.102770 
412.826800  	97.801263 
414.255267  	97.667568 
415.683733  	97.829691 
417.112199  	96.715096 
418.540666  	92.565988 
419.969132  	93.950193 
421.397599  	96.676585 
422.826065  	96.901998 
424.254532  	97.355008 
425.682998  	98.291090 
427.111464  	98.121300 
428.539931  	97.521424 
429.968397  	96.833273 
431.396864  	96.248147 
432.825330  	96.436919 
434.253797  	96.508251 
435.682263  	96.713156 
437.110730  	98.033156 
438.539196  	98.613071 
439.967662  	97.733435 
441.396129  	96.799667 
442.824595  	97.042075 
444.253062  	98.286214 
445.681528  	98.552303 
447.109995  	96.820817 
448.538461  	95.785123 
449.966927  	96.525036 
451.395394  	96.492517 
452.823860  	95.427878 
454.252327  	95.625221 
455.680793  	96.808647 
457.109260  	98.062538 
458.537726  	97.929602 
459.966192  	96.870423 
461.394659  	96.673841 
462.823125  	96.846180 
464.251592  	96.655895 
465.680058  	96.977691 
467.108525  	97.365154 
468.536991  	96.921015 
469.965458  	96.609328 
471.393924  	96.108143 
472.822390  	94.925218 
474.250857  	95.069221 
475.679323  	95.938662 
477.107790  	96.080676 
478.536256  	95.680486 
479.964723  	95.255230 
481.393189  	95.063956 
482.821655  	95.097138 
484.250122  	94.860970 
485.678588  	94.771533 
487.107055  	95.037425 
488.535521  	94.799780 
489.963988  	94.244422 
491.392454  	94.189670 
492.820921  	94.526105 
494.249387  	94.874200 
495.677853  	95.021277 
497.106320  	94.774371 
498.534786  	94.379926 
499.963253  	94.319545 
501.391719  	94.538287 
502.820186  	94.651605 
504.248652  	94.583770 
505.677118  	94.297116 
507.105585  	93.725093 
508.534051  	93.597665 
509.962518  	94.042245 
511.390984  	94.177461 
512.819451  	93.883532 
514.247917  	93.566226 
515.676384  	93.225843 
517.104850  	93.214321 
518.533316  	93.563428 
519.961783  	93.683367 
521.390249  	93.705733 
522.818716  	93.818055 
524.247182  	93.939630 
525.675649  	94.141674 
527.104115  	94.111466 
528.532581  	93.746286 
529.961048  	93.545002 
531.389514  	93.682173 
532.817981  	93.883123 
534.246447  	93.908425 
535.674914  	93.814283 
537.103380  	93.806346 
538.531846  	93.783803 
539.960313  	93.579709 
541.388779  	93.372692 
542.817246  	93.369475 
544.245712  	93.592734 
545.674179  	93.838420 
547.102645  	93.870573 
548.531112  	93.792821 
549.959578  	93.683494 
551.388044  	93.538225 
552.816511  	93.544010 
554.244977  	93.654197 
555.673444  	93.746540 
557.101910  	93.881452 
558.530377  	93.922613 
559.958843  	93.838859 
561.387309  	93.796035 
562.815776  	93.730773 
564.244242  	93.732116 
565.672709  	93.839201 
567.101175  	93.814116 
568.529642  	93.846204 
569.958108  	94.038048 
571.386575  	94.048011 
572.815041  	94.031745 
574.243507  	94.086267 
575.671974  	93.942862 
577.100440  	93.876254 
578.528907  	94.044824 
579.957373  	94.117187 
581.385840  	94.111474 
582.814306  	94.073105 
584.242772  	93.964257 
585.671239  	93.972499 
587.099705  	94.023830 
588.528172  	94.035389 
589.956638  	94.162289 
591.385105  	94.239962 
592.813571  	94.124995 
594.242037  	93.960836 
595.670504  	93.810810 
597.098970  	93.912051 
598.527437  	94.254457 
599.955903  	94.355384 
601.384370  	94.220560 
602.812836  	94.122234 
604.241303  	94.038552 
605.669769  	93.955202 
607.098235  	93.882108 
608.526702  	93.736390 
609.955168  	93.640183 
611.383635  	93.533772 
612.812101  	93.273499 
614.240568  	93.104574 
615.669034  	93.187429 
617.097500  	93.355606 
618.525967  	93.427554 
619.954433  	93.477424 
621.382900  	93.557248 
622.811366  	93.565808 
624.239833  	93.666932 
625.668299  	93.863764 
627.096766  	94.049014 
628.525232  	94.154040 
629.953698  	94.181197 
631.382165  	94.088337 
632.810631  	94.041539 
634.239098  	94.039144 
635.667564  	94.034819 
637.096031  	94.088548 
638.524497  	94.153557 
639.952963  	94.141572 
641.381430  	94.109276 
642.809896  	94.127765 
644.238363  	94.257415 
645.666829  	94.406843 
647.095296  	94.464868 
648.523762  	94.503463 
649.952229  	94.512578 
651.380695  	94.493140 
652.809161  	94.441320 
654.237628  	94.381396 
655.666094  	94.403610 
657.094561  	94.519729 
658.523027  	94.539827 
659.951494  	94.507503 
661.379960  	94.460871 
662.808426  	94.404078 
664.236893  	94.409414 
665.665359  	94.483515 
667.093826  	94.489736 
668.522292  	94.470193 
669.950759  	94.529722 
671.379225  	94.595802 
672.807691  	94.514119 
674.236158  	94.479269 
675.664624  	94.572919 
677.093091  	94.711881 
678.521557  	94.818388 
679.950024  	94.872330 
681.378490  	94.939710 
682.806957  	95.046223 
684.235423  	95.121772 
685.663889  	95.181817 
687.092356  	95.262565 
688.520822  	95.348909 
689.949289  	95.380313 
691.377755  	95.344965 
692.806222  	95.293360 
694.234688  	95.296047 
695.663154  	95.353694 
697.091621  	95.294855 
698.520087  	95.298652 
699.948554  	95.404249 
701.377020  	95.493013 
702.805487  	95.617578 
704.233953  	95.744554 
705.662420  	95.857007 
707.090886  	95.935010 
708.519352  	95.985071 
709.947819  	96.092416 
711.376285  	96.222306 
712.804752  	96.185730 
714.233218  	96.246836 
715.661685  	96.441872 
717.090151  	96.514894 
718.518617  	96.534159 
719.947084  	96.547320 
721.375550  	96.560487 
722.804017  	96.596349 
724.232483  	96.616055 
725.660950  	96.675299 
727.089416  	96.807027 
728.517883  	96.878237 
729.946349  	96.873272 
731.374815  	96.914411 
732.803282  	97.006693 
734.231748  	97.077183 
735.660215  	97.047208 
737.088681  	96.959298 
738.517148  	96.989284 
739.945614  	96.942651 
741.374080  	96.916230 
742.802547  	97.015178 
744.231013  	97.058447 
745.659480  	97.067709 
747.087946  	97.103894 
748.516413  	97.095121 
749.944879  	97.117030 
751.373345  	97.207878 
752.801812  	97.281774 
754.230278  	97.305864 
755.658745  	97.314665 
757.087211  	97.360123 
758.515678  	97.378317 
759.944144  	97.341540 
761.372611  	97.371434 
762.801077  	97.430690 
764.229543  	97.436142 
765.658010  	97.436472 
767.086476  	97.398352 
768.514943  	97.329021 
769.943409  	97.316231 
771.371876  	97.323155 
772.800342  	97.304235 
774.228808  	97.257574 
775.657275  	97.210452 
777.085741  	97.207058 
778.514208  	97.171328 
779.942674  	97.098952 
781.371141  	97.110974 
782.799607  	97.160227 
784.228074  	97.192824 
785.656540  	97.254575 
787.085006  	97.292603 
788.513473  	97.290355 
789.941939  	97.315951 
791.370406  	97.356201 
792.798872  	97.375560 
794.227339  	97.384683 
795.655805  	97.388835 
797.084271  	97.384798 
798.512738  	97.405066 
799.941204  	97.456515 
801.369671  	97.458582 
802.798137  	97.424393 
804.226604  	97.431198 
805.655070  	97.414252 
807.083537  	97.390104 
808.512003  	97.450684 
809.940469  	97.452140 
811.368936  	97.340790 
812.797402  	97.300306 
814.225869  	97.307274 
815.654335  	97.247278 
817.082802  	97.183776 
818.511268  	97.139547 
819.939734  	97.089935 
821.368201  	97.059626 
822.796667  	97.036061 
824.225134  	97.008927 
825.653600  	96.979191 
827.082067  	96.944184 
828.510533  	96.945907 
829.938999  	96.998720 
831.367466  	97.068782 
832.795932  	97.096501 
834.224399  	97.022999 
835.652865  	96.926648 
837.081332  	96.897587 
838.509798  	96.836384 
839.938265  	96.712364 
841.366731  	96.646401 
842.795197  	96.641162 
844.223664  	96.616122 
845.652130  	96.542845 
847.080597  	96.446520 
848.509063  	96.368407 
849.937530  	96.280799 
851.365996  	96.207075 
852.794462  	96.266945 
854.222929  	96.379278 
855.651395  	96.343199 
857.079862  	96.227870 
858.508328  	96.211486 
859.936795  	96.274954 
861.365261  	96.329760 
862.793728  	96.363192 
864.222194  	96.402021 
865.650660  	96.488049 
867.079127  	96.595739 
868.507593  	96.639925 
869.936060  	96.649148 
871.364526  	96.709370 
872.792993  	96.771088 
874.221459  	96.788389 
875.649925  	96.869334 
877.078392  	97.010905 
878.506858  	97.024599 
879.935325  	96.926220 
881.363791  	96.911892 
882.792258  	96.951905 
884.220724  	96.915234 
885.649190  	96.853915 
887.077657  	96.821622 
888.506123  	96.770644 
889.934590  	96.712120 
891.363056  	96.684386 
892.791523  	96.673282 
894.219989  	96.628677 
895.648456  	96.507406 
897.076922  	96.394114 
898.505388  	96.367607 
899.933855  	96.309879 
901.362321  	96.193034 
902.790788  	96.131504 
904.219254  	96.069499 
905.647721  	95.937228 
907.076187  	95.800388 
908.504653  	95.668418 
909.933120  	95.539291 
911.361586  	95.457639 
912.790053  	95.420148 
914.218519  	95.408906 
915.646986  	95.408143 
917.075452  	95.369398 
918.503919  	95.282737 
919.932385  	95.229854 
921.360851  	95.245064 
922.789318  	95.254269 
924.217784  	95.258310 
925.646251  	95.288978 
927.074717  	95.283477 
928.503184  	95.294196 
929.931650  	95.424760 
931.360116  	95.576322 
932.788583  	95.665727 
934.217049  	95.756537 
935.645516  	95.854339 
937.073982  	95.928769 
938.502449  	96.015186 
939.930915  	96.109394 
941.359382  	96.141011 
942.787848  	96.123119 
944.216314  	96.104924 
945.644781  	96.041136 
947.073247  	95.954313 
948.501714  	95.900089 
949.930180  	95.775665 
951.358647  	95.596475 
952.787113  	95.493809 
954.215579  	95.396294 
955.644046  	95.278393 
957.072512  	95.200199 
958.500979  	95.061758 
959.929445  	94.859849 
961.357912  	94.696897 
962.786378  	94.559733 
964.214844  	94.453932 
965.643311  	94.385650 
967.071777  	94.315058 
968.500244  	94.241338 
969.928710  	94.167179 
971.357177  	94.133665 
972.785643  	94.115842 
974.214110  	93.997481 
975.642576  	93.860321 
977.071042  	93.800620 
978.499509  	93.718303 
979.927975  	93.637302 
981.356442  	93.649861 
982.784908  	93.687840 
984.213375  	93.681915 
985.641841  	93.633165 
987.070307  	93.578591 
988.498774  	93.522560 
989.927240  	93.409841 
991.355707  	93.286706 
992.784173  	93.214915 
994.212640  	93.149175 
995.641106  	93.113008 
997.069573  	93.125763 
998.498039  	93.116892 
999.926505  	93.110631 
1001.354972  	93.126684 
1002.783438  	93.098374 
1004.211905  	93.036811 
1005.640371  	92.967601 
1007.068838  	92.876188 
1008.497304  	92.764021 
1009.925770  	92.585222 
1011.354237  	92.334555 
1012.782703  	92.101462 
1014.211170  	91.865075 
1015.639636  	91.556411 
1017.068103  	91.235344 
1018.496569  	90.939494 
1019.925036  	90.612521 
1021.353502  	90.219916 
1022.781968  	89.815931 
1024.210435  	89.485098 
1025.638901  	89.184657 
1027.067368  	88.864037 
1028.495834  	88.580965 
1029.924301  	88.328833 
1031.352767  	88.103753 
1032.781233  	87.907381 
1034.209700  	87.687039 
1035.638166  	87.536110 
1037.066633  	87.476986 
1038.495099  	87.353066 
1039.923566  	87.213955 
1041.352032  	87.174875 
1042.780498  	87.200154 
1044.208965  	87.260532 
1045.637431  	87.348322 
1047.065898  	87.482735 
1048.494364  	87.650343 
1049.922831  	87.786470 
1051.351297  	87.904592 
1052.779764  	88.028437 
1054.208230  	88.165714 
1055.636696  	88.358958 
1057.065163  	88.596060 
1058.493629  	88.838291 
1059.922096  	89.081713 
1061.350562  	89.359717 
1062.779029  	89.675136 
1064.207495  	89.949807 
1065.635961  	90.164121 
1067.064428  	90.342092 
1068.492894  	90.490046 
1069.921361  	90.644123 
1071.349827  	90.771322 
1072.778294  	90.836190 
1074.206760  	90.919975 
1075.635227  	91.024927 
1077.063693  	91.068966 
1078.492159  	91.054422 
1079.920626  	91.010699 
1081.349092  	90.955246 
1082.777559  	90.913516 
1084.206025  	90.897939 
1085.634492  	90.907800 
1087.062958  	90.898245 
1088.491424  	90.838480 
1089.919891  	90.752588 
1091.348357  	90.643182 
1092.776824  	90.543370 
1094.205290  	90.479396 
1095.633757  	90.371727 
1097.062223  	90.211533 
1098.490690  	90.049181 
1099.919156  	89.875425 
1101.347622  	89.756774 
1102.776089  	89.738018 
1104.204555  	89.766938 
1105.633022  	89.855437 
1107.061488  	89.994722 
1108.489955  	90.151438 
1109.918421  	90.313866 
1111.346887  	90.469738 
1112.775354  	90.678815 
1114.203820  	90.931683 
1115.632287  	91.121267 
1117.060753  	91.261392 
1118.489220  	91.437332 
1119.917686  	91.664902 
1121.346152  	91.889626 
1122.774619  	92.064206 
1124.203085  	92.204661 
1125.631552  	92.316431 
1127.060018  	92.401600 
1128.488485  	92.475331 
1129.916951  	92.521919 
1131.345418  	92.581976 
1132.773884  	92.707624 
1134.202350  	92.842342 
1135.630817  	92.970675 
1137.059283  	93.129126 
1138.487750  	93.255625 
1139.916216  	93.318831 
1141.344683  	93.395053 
1142.773149  	93.483875 
1144.201615  	93.505098 
1145.630082  	93.478445 
1147.058548  	93.469492 
1148.487015  	93.459704 
1149.915481  	93.439547 
1151.343948  	93.446428 
1152.772414  	93.448276 
1154.200881  	93.410917 
1155.629347  	93.388506 
1157.057813  	93.374293 
1158.486280  	93.313137 
1159.914746  	93.255511 
1161.343213  	93.224830 
1162.771679  	93.165217 
1164.200146  	93.100782 
1165.628612  	93.057289 
1167.057078  	92.999871 
1168.485545  	92.940929 
1169.914011  	92.899056 
1171.342478  	92.867728 
1172.770944  	92.853020 
1174.199411  	92.853921 
1175.627877  	92.880347 
1177.056344  	92.934047 
1178.484810  	92.982170 
1179.913276  	93.012985 
1181.341743  	93.022221 
1182.770209  	93.005897 
1184.198676  	93.003870 
1185.627142  	93.030264 
1187.055609  	93.049032 
1188.484075  	93.046394 
1189.912541  	93.040292 
1191.341008  	93.052767 
1192.769474  	93.064207 
1194.197941  	93.040634 
1195.626407  	92.999522 
1197.054874  	92.945522 
1198.483340  	92.885798 
1199.911806  	92.865896 
1201.340273  	92.841554 
1202.768739  	92.758568 
1204.197206  	92.678573 
1205.625672  	92.622362 
1207.054139  	92.558649 
1208.482605  	92.499164 
1209.911072  	92.428445 
1211.339538  	92.337092 
1212.768004  	92.255375 
1214.196471  	92.173470 
1215.624937  	92.096282 
1217.053404  	92.051862 
1218.481870  	91.999524 
1219.910337  	91.911213 
1221.338803  	91.833278 
1222.767269  	91.782097 
1224.195736  	91.716257 
1225.624202  	91.633476 
1227.052669  	91.592730 
1228.481135  	91.591110 
1229.909602  	91.584449 
1231.338068  	91.620067 
1232.766535  	91.707890 
1234.195001  	91.774345 
1235.623467  	91.840040 
1237.051934  	91.925704 
1238.480400  	91.979161 
1239.908867  	92.012477 
1241.337333  	92.069545 
1242.765800  	92.148922 
1244.194266  	92.221528 
1245.622732  	92.276654 
1247.051199  	92.331559 
1248.479665  	92.359030 
1249.908132  	92.361427 
1251.336598  	92.405842 
1252.765065  	92.470862 
1254.193531  	92.512079 
1255.621997  	92.541134 
1257.050464  	92.541355 
1258.478930  	92.529873 
1259.907397  	92.540300 
1261.335863  	92.554372 
1262.764330  	92.598389 
1264.192796  	92.682770 
1265.621263  	92.739710 
1267.049729  	92.751615 
1268.478195  	92.760045 
1269.906662  	92.770443 
1271.335128  	92.740551 
1272.763595  	92.672656 
1274.192061  	92.621925 
1275.620528  	92.574984 
1277.048994  	92.523939 
1278.477460  	92.517027 
1279.905927  	92.526901 
1281.334393  	92.561975 
1282.762860  	92.673999 
1284.191326  	92.779050 
1285.619793  	92.821068 
1287.048259  	92.813087 
1288.476726  	92.759896 
1289.905192  	92.766254 
1291.333658  	92.853443 
1292.762125  	92.911583 
1294.190591  	92.958849 
1295.619058  	93.020493 
1297.047524  	93.045318 
1298.475991  	93.056916 
1299.904457  	93.082894 
1301.332923  	93.114561 
1302.761390  	93.133665 
1304.189856  	93.133341 
1305.618323  	93.156823 
1307.046789  	93.198008 
1308.475256  	93.203914 
1309.903722  	93.229792 
1311.332189  	93.296669 
1312.760655  	93.329070 
1314.189121  	93.360071 
1315.617588  	93.441783 
1317.046054  	93.504642 
1318.474521  	93.519456 
1319.902987  	93.549175 
1321.331454  	93.612374 
1322.759920  	93.663584 
1324.188386  	93.685646 
1325.616853  	93.704630 
1327.045319  	93.708118 
1328.473786  	93.694495 
1329.902252  	93.696002 
1331.330719  	93.701567 
1332.759185  	93.683800 
1334.187651  	93.671513 
1335.616118  	93.669666 
1337.044584  	93.666756 
1338.473051  	93.637889 
1339.901517  	93.551433 
1341.329984  	93.513999 
1342.758450  	93.542650 
1344.186917  	93.547685 
1345.615383  	93.538956 
1347.043849  	93.545944 
1348.472316  	93.522724 
1349.900782  	93.475726 
1351.329249  	93.451299 
1352.757715  	93.415507 
1354.186182  	93.335242 
1355.614648  	93.246137 
1357.043114  	93.208210 
1358.471581  	93.190507 
1359.900047  	93.170751 
1361.328514  	93.128863 
1362.756980  	92.931107 
1364.185447  	92.735313 
1365.613913  	92.716633 
1367.042380  	92.695735 
1368.470846  	92.590782 
1369.899312  	92.502536 
1371.327779  	92.501555 
1372.756245  	92.516276 
1374.184712  	92.329462 
1375.613178  	92.092392 
1377.041645  	92.016544 
1378.470111  	91.868499 
1379.898577  	91.730756 
1381.327044  	91.744488 
1382.755510  	91.721529 
1384.183977  	91.723912 
1385.612443  	91.778441 
1387.040910  	91.659699 
1388.469376  	91.540790 
1389.897843  	91.573379 
1391.326309  	91.637513 
1392.754775  	91.752458 
1394.183242  	91.758215 
1395.611708  	91.600106 
1397.040175  	91.684528 
1398.468641  	91.796980 
1399.897108  	91.657639 
1401.325574  	91.662219 
1402.754040  	91.849144 
1404.182507  	91.913711 
1405.610973  	91.865516 
1407.039440  	91.955690 
1408.467906  	92.078660 
1409.896373  	92.104640 
1411.324839  	92.119435 
1412.753305  	92.158824 
1414.181772  	92.211966 
1415.610238  	92.254739 
1417.038705  	92.335992 
1418.467171  	92.374454 
1419.895638  	92.261491 
1421.324104  	92.300574 
1422.752571  	92.417384 
1424.181037  	92.406597 
1425.609503  	92.373137 
1427.037970  	92.448551 
1428.466436  	92.473093 
1429.894903  	92.424819 
1431.323369  	92.397197 
1432.751836  	92.354909 
1434.180302  	92.393270 
1435.608768  	92.443834 
1437.037235  	92.262710 
1438.465701  	92.158507 
1439.894168  	92.196509 
1441.322634  	92.187868 
1442.751101  	92.150101 
1444.179567  	92.127556 
1445.608034  	92.188005 
1447.036500  	92.207312 
1448.464966  	92.101483 
1449.893433  	92.125801 
1451.321899  	92.203497 
1452.750366  	92.202200 
1454.178832  	92.310777 
1455.607299  	92.514055 
1457.035765  	92.446973 
1458.464231  	92.349423 
1459.892698  	92.435819 
1461.321164  	92.563706 
1462.749631  	92.734945 
1464.178097  	92.823838 
1465.606564  	92.784618 
1467.035030  	92.823776 
1468.463497  	92.929895 
1469.891963  	93.094971 
1471.320429  	93.270398 
1472.748896  	93.207023 
1474.177362  	93.192077 
1475.605829  	93.322429 
1477.034295  	93.330868 
1478.462762  	93.350738 
1479.891228  	93.428654 
1481.319694  	93.390120 
1482.748161  	93.318580 
1484.176627  	93.352195 
1485.605094  	93.294358 
1487.033560  	93.099885 
1488.462027  	92.940779 
1489.890493  	92.591533 
1491.318959  	92.146199 
1492.747426  	92.057959 
1494.175892  	92.102282 
1495.604359  	91.931737 
1497.032825  	91.436958 
1498.461292  	91.127328 
1499.889758  	90.950495 
1501.318225  	90.738981 
1502.746691  	90.611921 
1504.175157  	90.690149 
1505.603624  	90.797849 
1507.032090  	89.734676 
1508.460557  	88.911922 
1509.889023  	88.938140 
1511.317490  	88.877754 
1512.745956  	88.641671 
1514.174422  	88.569073 
1515.602889  	88.631095 
1517.031355  	88.304030 
1518.459822  	88.195991 
1519.888288  	88.538422 
1521.316755  	88.367738 
1522.745221  	87.843092 
1524.173688  	87.954251 
1525.602154  	87.925442 
1527.030620  	87.718406 
1528.459087  	87.609090 
1529.887553  	87.573432 
1531.316020  	87.752047 
1532.744486  	87.848417 
1534.172953  	87.531591 
1535.601419  	87.630362 
1537.029885  	87.981033 
1538.458352  	88.333330 
1539.886818  	88.219593 
1541.315285  	87.917552 
1542.743751  	88.103272 
1544.172218  	88.216820 
1545.600684  	88.257617 
1547.029151  	88.565860 
1548.457617  	88.980165 
1549.886083  	89.193861 
1551.314550  	89.445925 
1552.743016  	89.898363 
1554.171483  	90.255992 
1555.599949  	90.488775 
1557.028416  	91.071809 
1558.456882  	91.655252 
1559.885348  	90.896093 
1561.313815  	91.277485 
1562.742281  	91.674418 
1564.170748  	91.906117 
1565.599214  	92.018569 
1567.027681  	92.247605 
1568.456147  	92.546400 
1569.884613  	92.525055 
1571.313080  	92.449449 
1572.741546  	92.588938 
1574.170013  	92.743652 
1575.598479  	92.778224 
1577.026946  	92.613854 
1578.455412  	92.574363 
1579.883879  	92.664551 
1581.312345  	92.662415 
1582.740811  	92.623851 
1584.169278  	92.661836 
1585.597744  	92.644368 
1587.026211  	92.617870 
1588.454677  	92.547118 
1589.883144  	92.415275 
1591.311610  	92.313883 
1592.740076  	92.204961 
1594.168543  	92.062535 
1595.597009  	91.945424 
1597.025476  	91.810628 
1598.453942  	91.699702 
1599.882409  	91.504917 
1601.310875  	91.265692 
1602.739342  	91.054657 
1604.167808  	90.832997 
1605.596274  	90.582109 
1607.024741  	90.380517 
1608.453207  	90.087994 
1609.881674  	89.805668 
1611.310140  	89.545290 
1612.738607  	89.226973 
1614.167073  	89.075609 
1615.595539  	88.918514 
1617.024006  	88.013870 
1618.452472  	87.471779 
1619.880939  	87.290251 
1621.309405  	87.160915 
1622.737872  	86.907073 
1624.166338  	86.232922 
1625.594804  	86.007406 
1627.023271  	85.968675 
1628.451737  	85.626868 
1629.880204  	85.528224 
1631.308670  	85.552046 
1632.737137  	85.585203 
1634.165603  	85.883460 
1635.594070  	85.764904 
1637.022536  	85.348591 
1638.451002  	85.574475 
1639.879469  	85.682761 
1641.307935  	85.723919 
1642.736402  	85.864881 
1644.164868  	86.031931 
1645.593335  	86.278944 
1647.021801  	86.038888 
1648.450267  	85.691077 
1649.878734  	86.089562 
1651.307200  	86.642807 
1652.735667  	86.850679 
1654.164133  	86.330336 
1655.592600  	86.652827 
1657.021066  	87.182663 
1658.449533  	87.591024 
1659.877999  	87.950932 
1661.306465  	88.532273 
1662.734932  	88.882132 
1664.163398  	89.079152 
1665.591865  	89.579919 
1667.020331  	89.956810 
1668.448798  	90.290116 
1669.877264  	90.582567 
1671.305730  	90.795544 
1672.734197  	91.180440 
1674.162663  	91.578250 
1675.591130  	91.739760 
1677.019596  	92.036635 
1678.448063  	92.398955 
1679.876529  	92.657602 
1681.304996  	92.981483 
1682.733462  	93.381529 
1684.161928  	93.543552 
1685.590395  	93.626627 
1687.018861  	93.911950 
1688.447328  	94.243553 
1689.875794  	94.457207 
1691.304261  	94.665370 
1692.732727  	95.009427 
1694.161193  	95.456081 
1695.589660  	95.676893 
1697.018126  	95.762455 
1698.446593  	96.147003 
1699.875059  	96.621583 
1701.303526  	96.416340 
1702.731992  	96.573058 
1704.160458  	97.011655 
1705.588925  	97.033903 
1707.017391  	96.925065 
1708.445858  	97.132183 
1709.874324  	97.195639 
1711.302791  	97.259331 
1712.731257  	97.418887 
1714.159724  	97.390360 
1715.588190  	97.390009 
1717.016656  	97.355755 
1718.445123  	96.713136 
1719.873589  	96.322120 
1721.302056  	96.151446 
1722.730522  	95.978093 
1724.158989  	96.003498 
1725.587455  	96.247662 
1727.015921  	96.575189 
1728.444388  	96.771773 
1729.872854  	96.878403 
1731.301321  	97.050230 
1732.729787  	97.292500 
1734.158254  	97.341903 
1735.586720  	97.252507 
1737.015187  	97.382354 
1738.443653  	97.559484 
1739.872119  	97.577775 
1741.300586  	97.634820 
1742.729052  	97.794035 
1744.157519  	97.892392 
1745.585985  	98.017350 
1747.014452  	98.182736 
1748.442918  	98.269163 
1749.871384  	98.414702 
1751.299851  	98.525957 
1752.728317  	98.587722 
1754.156784  	98.782435 
1755.585250  	98.927131 
1757.013717  	98.884608 
1758.442183  	98.937750 
1759.870650  	99.069337 
1761.299116  	99.143739 
1762.727582  	99.127432 
1764.156049  	99.140268 
1765.584515  	99.240965 
1767.012982  	99.274537 
1768.441448  	99.179705 
1769.869915  	99.247767 
1771.298381  	99.320043 
1772.726847  	99.148401 
1774.155314  	99.126842 
1775.583780  	99.161242 
1777.012247  	99.172585 
1778.440713  	99.216748 
1779.869180  	99.224091 
1781.297646  	99.185293 
1782.726112  	99.190092 
1784.154579  	99.193004 
1785.583045  	99.143942 
1787.011512  	99.120256 
1788.439978  	99.165579 
1789.868445  	99.206831 
1791.296911  	99.184432 
1792.725378  	99.109763 
1794.153844  	99.074317 
1795.582310  	99.092978 
1797.010777  	99.134472 
1798.439243  	99.150445 
1799.867710  	99.144560 
1801.296176  	99.111524 
1802.724643  	99.063126 
1804.153109  	99.062510 
1805.581575  	99.082513 
1807.010042  	99.079363 
1808.438508  	99.091424 
1809.866975  	99.083890 
1811.295441  	99.057087 
1812.723908  	99.041792 
1814.152374  	99.041078 
1815.580841  	99.057571 
1817.009307  	99.061324 
1818.437773  	99.051078 
1819.866240  	99.038796 
1821.294706  	99.009141 
1822.723173  	99.021889 
1824.151639  	99.049300 
1825.580106  	98.996507 
1827.008572  	98.998105 
1828.437038  	99.048865 
1829.865505  	98.985190 
1831.293971  	98.944121 
1832.722438  	98.953332 
1834.150904  	98.942224 
1835.579371  	98.963184 
1837.007837  	98.996222 
1838.436304  	99.032987 
1839.864770  	99.061100 
1841.293236  	99.064149 
1842.721703  	99.096092 
1844.150169  	99.063513 
1845.578636  	98.973212 
1847.007102  	98.974362 
1848.435569  	98.992556 
1849.864035  	98.994734 
1851.292501  	98.992007 
1852.720968  	98.952246 
1854.149434  	98.927185 
1855.577901  	98.936902 
1857.006367  	98.926896 
1858.434834  	98.943085 
1859.863300  	98.918011 
1861.291766  	98.867192 
1862.720233  	98.884425 
1864.148699  	98.891853 
1865.577166  	98.938395 
1867.005632  	99.023468 
1868.434099  	98.939331 
1869.862565  	98.805559 
1871.291032  	98.810199 
1872.719498  	98.843489 
1874.147964  	98.843134 
1875.576431  	98.813208 
1877.004897  	98.802900 
1878.433364  	98.839509 
1879.861830  	98.861712 
1881.290297  	98.888656 
1882.718763  	98.853202 
1884.147229  	98.779082 
1885.575696  	98.776886 
1887.004162  	98.814063 
1888.432629  	98.816348 
1889.861095  	98.755644 
1891.289562  	98.722405 
1892.718028  	98.771063 
1894.146495  	98.807315 
1895.574961  	98.803522 
1897.003427  	98.854617 
1898.431894  	98.854783 
1899.860360  	98.730197 
1901.288827  	98.741870 
1902.717293  	98.805460 
1904.145760  	98.826074 
1905.574226  	98.798035 
1907.002692  	98.791328 
1908.431159  	98.827396 
1909.859625  	98.800364 
1911.288092  	98.762747 
1912.716558  	98.761881 
1914.145025  	98.753846 
1915.573491  	98.810848 
1917.001957  	98.821197 
1918.430424  	98.721201 
1919.858890  	98.780378 
1921.287357  	98.920917 
1922.715823  	98.825110 
1924.144290  	98.820000 
1925.572756  	98.896977 
1927.001223  	98.884577 
1928.429689  	98.807291 
1929.858155  	98.735681 
1931.286622  	98.747703 
1932.715088  	98.758702 
1934.143555  	98.680061 
1935.572021  	98.665707 
1937.000488  	98.639985 
1938.428954  	98.647796 
1939.857420  	98.730467 
1941.285887  	98.698653 
1942.714353  	98.621246 
1944.142820  	98.629670 
1945.571286  	98.569426 
1946.999753  	98.587621 
1948.428219  	98.765038 
1949.856686  	98.767980 
1951.285152  	98.717340 
1952.713618  	98.749246 
1954.142085  	98.720270 
1955.570551  	98.596809 
1956.999018  	98.621450 
1958.427484  	98.770741 
1959.855951  	98.704963 
1961.284417  	98.564744 
1962.712883  	98.645526 
1964.141350  	98.709411 
1965.569816  	98.716901 
1966.998283  	98.726361 
1968.426749  	98.613926 
1969.855216  	98.629087 
1971.283682  	98.691226 
1972.712149  	98.664969 
1974.140615  	98.738308 
1975.569081  	98.715386 
1976.997548  	98.487646 
1978.426014  	98.400396 
1979.854481  	98.378612 
1981.282947  	98.264882 
1982.711414  	98.164343 
1984.139880  	98.176405 
1985.568346  	98.328058 
1986.996813  	98.422385 
1988.425279  	98.478869 
1989.853746  	98.553158 
1991.282212  	98.445030 
1992.710679  	98.307523 
1994.139145  	98.367714 
1995.567611  	98.485911 
1996.996078  	98.623560 
1998.424544  	98.686159 
1999.853011  	98.672062 
2001.281477  	98.701756 
2002.709944  	98.656170 
2004.138410  	98.608319 
2005.566877  	98.661375 
2006.995343  	98.671976 
2008.423809  	98.673834 
2009.852276  	98.595252 
2011.280742  	98.464305 
2012.709209  	98.539112 
2014.137675  	98.734515 
2015.566142  	98.912569 
2016.994608  	98.866863 
2018.423074  	98.543089 
2019.851541  	98.529382 
2021.280007  	98.628992 
2022.708474  	98.414824 
2024.136940  	98.309250 
2025.565407  	98.426363 
2026.993873  	98.543310 
2028.422340  	98.578660 
2029.850806  	98.505407 
2031.279272  	98.594938 
2032.707739  	98.557786 
2034.136205  	98.323549 
2035.564672  	98.527852 
2036.993138  	98.623403 
2038.421605  	98.361113 
2039.850071  	98.527314 
2041.278537  	98.723235 
2042.707004  	98.559591 
2044.135470  	98.545698 
2045.563937  	98.641839 
2046.992403  	98.739625 
2048.420870  	98.758946 
2049.849336  	98.485276 
2051.277803  	98.252376 
2052.706269  	98.266865 
2054.134735  	98.341666 
2055.563202  	98.400872 
2056.991668  	98.490570 
2058.420135  	98.601103 
2059.848601  	98.571719 
2061.277068  	98.478543 
2062.705534  	98.530265 
2064.134000  	98.515830 
2065.562467  	98.393934 
2066.990933  	98.358531 
2068.419400  	98.352129 
2069.847866  	98.419202 
2071.276333  	98.477737 
2072.704799  	98.410766 
2074.133265  	98.477379 
2075.561732  	98.567960 
2076.990198  	98.457567 
2078.418665  	98.367640 
2079.847131  	98.297112 
2081.275598  	98.208653 
2082.704064  	98.242372 
2084.132531  	98.321837 
2085.560997  	98.378930 
2086.989463  	98.383092 
2088.417930  	98.298540 
2089.846396  	98.251991 
2091.274863  	98.278484 
2092.703329  	98.358485 
2094.131796  	98.448301 
2095.560262  	98.401494 
2096.988728  	98.350516 
2098.417195  	98.394179 
2099.845661  	98.342730 
2101.274128  	98.215210 
2102.702594  	98.161334 
2104.131061  	98.226368 
2105.559527  	98.302877 
2106.987994  	98.251401 
2108.416460  	98.240638 
2109.844926  	98.355202 
2111.273393  	98.373239 
2112.701859  	98.262136 
2114.130326  	98.130984 
2115.558792  	98.133289 
2116.987259  	98.279858 
2118.415725  	98.286019 
2119.844191  	98.219616 
2121.272658  	98.350732 
2122.701124  	98.494721 
2124.129591  	98.475231 
2125.558057  	98.349928 
2126.986524  	98.248482 
2128.414990  	98.294835 
2129.843457  	98.346239 
2131.271923  	98.326146 
2132.700389  	98.330561 
2134.128856  	98.256070 
2135.557322  	98.141490 
2136.985789  	98.149185 
2138.414255  	98.287451 
2139.842722  	98.435699 
2141.271188  	98.367689 
2142.699654  	98.352408 
2144.128121  	98.516557 
2145.556587  	98.304877 
2146.985054  	98.101574 
2148.413520  	98.347395 
2149.841987  	98.305980 
2151.270453  	98.064485 
2152.698919  	98.105355 
2154.127386  	98.167299 
2155.555852  	98.267851 
2156.984319  	98.259713 
2158.412785  	98.081295 
2159.841252  	98.248988 
2161.269718  	98.295907 
2162.698185  	97.977438 
2164.126651  	97.903789 
2165.555117  	98.090913 
2166.983584  	98.183252 
2168.412050  	98.040058 
2169.840517  	97.948374 
2171.268983  	98.115198 
2172.697450  	98.145211 
2174.125916  	98.045234 
2175.554382  	98.101095 
2176.982849  	98.090615 
2178.411315  	98.140415 
2179.839782  	98.352730 
2181.268248  	98.263788 
2182.696715  	97.984803 
2184.125181  	98.055585 
2185.553648  	98.330531 
2186.982114  	98.317327 
2188.410580  	98.115607 
2189.839047  	98.179210 
2191.267513  	98.338478 
2192.695980  	98.286482 
2194.124446  	98.121388 
2195.552913  	97.890658 
2196.981379  	97.872534 
2198.409845  	98.198495 
2199.838312  	98.334524 
2201.266778  	98.228367 
2202.695245  	98.280447 
2204.123711  	98.373849 
2205.552178  	98.336665 
2206.980644  	98.225489 
2208.409111  	98.124876 
2209.837577  	98.141463 
2211.266043  	98.223728 
2212.694510  	98.188978 
2214.122976  	98.030414 
2215.551443  	98.001813 
2216.979909  	98.120066 
2218.408376  	98.094203 
2219.836842  	98.058240 
2221.265308  	98.176876 
2222.693775  	98.161567 
2224.122241  	98.102310 
2225.550708  	98.188962 
2226.979174  	98.211090 
2228.407641  	98.154855 
2229.836107  	98.098252 
2231.264573  	98.099873 
2232.693040  	98.189363 
2234.121506  	98.128664 
2235.549973  	98.062029 
2236.978439  	98.235476 
2238.406906  	98.267894 
2239.835372  	98.109775 
2241.263839  	98.096858 
2242.692305  	98.142521 
2244.120771  	98.120738 
2245.549238  	98.069405 
2246.977704  	98.072901 
2248.406171  	98.191057 
2249.834637  	98.250693 
2251.263104  	98.211319 
2252.691570  	98.204535 
2254.120036  	98.130815 
2255.548503  	98.005559 
2256.976969  	97.993033 
2258.405436  	98.052855 
2259.833902  	98.071845 
2261.262369  	98.001276 
2262.690835  	97.937980 
2264.119302  	97.987375 
2265.547768  	98.030440 
2266.976234  	98.015264 
2268.404701  	98.021593 
2269.833167  	97.992892 
2271.261634  	97.900476 
2272.690100  	97.864739 
2274.118567  	97.911756 
2275.547033  	97.929331 
2276.975499  	97.916052 
2278.403966  	97.931376 
2279.832432  	97.906617 
2281.260899  	97.887691 
2282.689365  	97.956975 
2284.117832  	97.977475 
2285.546298  	97.947482 
2286.974764  	97.946807 
2288.403231  	97.893748 
2289.831697  	97.868166 
2291.260164  	97.923572 
2292.688630  	97.922091 
2294.117097  	97.913523 
2295.545563  	97.937483 
2296.974030  	97.934803 
2298.402496  	97.978411 
2299.830962  	98.010262 
2301.259429  	97.950313 
2302.687895  	97.943971 
2304.116362  	98.004618 
2305.544828  	97.993453 
2306.973295  	97.940516 
2308.401761  	97.973397 
2309.830227  	98.053118 
2311.258694  	98.027737 
2312.687160  	97.962665 
2314.115627  	97.963667 
2315.544093  	97.931164 
2316.972560  	97.899397 
2318.401026  	97.941754 
2319.829493  	97.960224 
2321.257959  	97.953789 
2322.686425  	97.926859 
2324.114892  	97.888242 
2325.543358  	97.944978 
2326.971825  	97.992966 
2328.400291  	97.965545 
2329.828758  	97.996156 
2331.257224  	98.016365 
2332.685690  	97.968652 
2334.114157  	97.971640 
2335.542623  	97.970428 
2336.971090  	97.929331 
2338.399556  	97.965133 
2339.828023  	98.052797 
2341.256489  	98.056453 
2342.684956  	98.010904 
2344.113422  	97.989800 
2345.541888  	97.862262 
2346.970355  	97.762715 
2348.398821  	97.913840 
2349.827288  	98.079554 
2351.255754  	98.095222 
2352.684221  	98.106452 
2354.112687  	98.111903 
2355.541153  	98.005460 
2356.969620  	97.977963 
2358.398086  	98.025030 
2359.826553  	97.962871 
2361.255019  	97.808098 
2362.683486  	97.697603 
2364.111952  	97.739782 
2365.540418  	97.795904 
2366.968885  	97.776112 
2368.397351  	97.805383 
2369.825818  	97.806237 
2371.254284  	97.742899 
2372.682751  	97.722849 
2374.111217  	97.698290 
2375.539684  	97.663212 
2376.968150  	97.672991 
2378.396616  	97.675438 
2379.825083  	97.645393 
2381.253549  	97.633019 
2382.682016  	97.671970 
2384.110482  	97.717890 
2385.538949  	97.729599 
2386.967415  	97.744940 
2388.395881  	97.737815 
2389.824348  	97.690577 
2391.252814  	97.696658 
2392.681281  	97.716405 
2394.109747  	97.682898 
2395.538214  	97.661982 
2396.966680  	97.646882 
2398.395147  	97.650477 
2399.823613  	97.711051 
2401.252079  	97.705945 
2402.680546  	97.637185 
2404.109012  	97.633339 
2405.537479  	97.628025 
2406.965945  	97.583266 
2408.394412  	97.588996 
2409.822878  	97.607058 
2411.251344  	97.577148 
2412.679811  	97.538772 
2414.108277  	97.522641 
2415.536744  	97.543889 
2416.965210  	97.576133 
2418.393677  	97.558715 
2419.822143  	97.541212 
2421.250610  	97.568359 
2422.679076  	97.539497 
2424.107542  	97.471209 
2425.536009  	97.481827 
2426.964475  	97.499019 
2428.392942  	97.469032 
2429.821408  	97.472069 
2431.249875  	97.472129 
2432.678341  	97.430877 
2434.106807  	97.411869 
2435.535274  	97.430764 
2436.963740  	97.470020 
2438.392207  	97.487685 
2439.820673  	97.457923 
2441.249140  	97.441211 
2442.677606  	97.461512 
2444.106072  	97.490235 
2445.534539  	97.490916 
2446.963005  	97.456721 
2448.391472  	97.463379 
2449.819938  	97.471024 
2451.248405  	97.387290 
2452.676871  	97.330229 
2454.105338  	97.363370 
2455.533804  	97.398461 
2456.962270  	97.416617 
2458.390737  	97.403674 
2459.819203  	97.392741 
2461.247670  	97.425593 
2462.676136  	97.412587 
2464.104603  	97.374880 
2465.533069  	97.386367 
2466.961535  	97.376114 
2468.390002  	97.357615 
2469.818468  	97.370378 
2471.246935  	97.366649 
2472.675401  	97.376365 
2474.103868  	97.395433 
2475.532334  	97.389054 
2476.960801  	97.407132 
2478.389267  	97.411119 
2479.817733  	97.350501 
2481.246200  	97.308285 
2482.674666  	97.316640 
2484.103133  	97.315461 
2485.531599  	97.283435 
2486.960066  	97.261991 
2488.388532  	97.260458 
2489.816998  	97.227371 
2491.245465  	97.203229 
2492.673931  	97.241898 
2494.102398  	97.245142 
2495.530864  	97.208631 
2496.959331  	97.252905 
2498.387797  	97.313641 
2499.816264  	97.282314 
2501.244730  	97.226846 
2502.673196  	97.190139 
2504.101663  	97.153816 
2505.530129  	97.180767 
2506.958596  	97.252764 
2508.387062  	97.248837 
2509.815529  	97.213314 
2511.243995  	97.215399 
2512.672461  	97.186924 
2514.100928  	97.184973 
2515.529394  	97.254476 
2516.957861  	97.222647 
2518.386327  	97.114126 
2519.814794  	97.116248 
2521.243260  	97.150326 
2522.671726  	97.134871 
2524.100193  	97.160690 
2525.528659  	97.200508 
2526.957126  	97.192810 
2528.385592  	97.170246 
2529.814059  	97.142146 
2531.242525  	97.131637 
2532.670992  	97.123690 
2534.099458  	97.051205 
2535.527924  	97.015207 
2536.956391  	97.088500 
2538.384857  	97.123094 
2539.813324  	97.110366 
2541.241790  	97.145789 
2542.670257  	97.141537 
2544.098723  	97.085460 
2545.527189  	97.076876 
2546.955656  	97.084918 
2548.384122  	97.076737 
2549.812589  	97.062726 
2551.241055  	97.029810 
2552.669522  	97.014470 
2554.097988  	97.028747 
2555.526455  	97.043280 
2556.954921  	97.059133 
2558.383387  	97.069525 
2559.811854  	97.088624 
2561.240320  	97.102183 
2562.668787  	97.073840 
2564.097253  	97.082772 
2565.525720  	97.134504 
2566.954186  	97.118039 
2568.382652  	97.073583 
2569.811119  	97.062548 
2571.239585  	97.053798 
2572.668052  	97.057516 
2574.096518  	97.051717 
2575.524985  	97.021642 
2576.953451  	97.027446 
2578.381918  	97.034467 
2579.810384  	96.998032 
2581.238850  	97.000737 
2582.667317  	97.051978 
2584.095783  	97.046412 
2585.524250  	96.990684 
2586.952716  	96.984326 
2588.381183  	97.006382 
2589.809649  	96.993459 
2591.238115  	96.984119 
2592.666582  	96.971560 
2594.095048  	96.916879 
2595.523515  	96.888421 
2596.951981  	96.903671 
2598.380448  	96.908373 
2599.808914  	96.923575 
2601.237380  	96.937065 
2602.665847  	96.906373 
2604.094313  	96.890123 
2605.522780  	96.912470 
2606.951246  	96.903541 
2608.379713  	96.863615 
2609.808179  	96.840801 
2611.236646  	96.824471 
2612.665112  	96.818975 
2614.093578  	96.838581 
2615.522045  	96.831699 
2616.950511  	96.787041 
2618.378978  	96.760831 
2619.807444  	96.773703 
2621.235911  	96.818285 
2622.664377  	96.833654 
2624.092843  	96.772902 
2625.521310  	96.727435 
2626.949776  	96.726232 
2628.378243  	96.698180 
2629.806709  	96.672199 
2631.235176  	96.664053 
2632.663642  	96.654118 
2634.092109  	96.680269 
2635.520575  	96.709800 
2636.949041  	96.716506 
2638.377508  	96.725750 
2639.805974  	96.687076 
2641.234441  	96.637752 
2642.662907  	96.655735 
2644.091374  	96.655692 
2645.519840  	96.616852 
2646.948306  	96.613774 
2648.376773  	96.610685 
2649.805239  	96.590655 
2651.233706  	96.604244 
2652.662172  	96.632139 
2654.090639  	96.624620 
2655.519105  	96.591174 
2656.947571  	96.579683 
2658.376038  	96.591425 
2659.804504  	96.590355 
2661.232971  	96.579297 
2662.661437  	96.571317 
2664.089904  	96.568698 
2665.518370  	96.560953 
2666.946837  	96.527392 
2668.375303  	96.507916 
2669.803769  	96.521948 
2671.232236  	96.516210 
2672.660702  	96.511972 
2674.089169  	96.531196 
2675.517635  	96.525191 
2676.946102  	96.516496 
2678.374568  	96.514241 
2679.803034  	96.478282 
2681.231501  	96.453846 
2682.659967  	96.455870 
2684.088434  	96.444620 
2685.516900  	96.454182 
2686.945367  	96.480111 
2688.373833  	96.460916 
2689.802300  	96.421029 
2691.230766  	96.414813 
2692.659232  	96.432562 
2694.087699  	96.433470 
2695.516165  	96.405835 
2696.944632  	96.385373 
2698.373098  	96.391974 
2699.801565  	96.399550 
2701.230031  	96.399487 
2702.658497  	96.404072 
2704.086964  	96.399876 
2705.515430  	96.379573 
2706.943897  	96.367759 
2708.372363  	96.364869 
2709.800830  	96.340420 
2711.229296  	96.295188 
2712.657763  	96.269331 
2714.086229  	96.281902 
2715.514695  	96.291479 
2716.943162  	96.268516 
2718.371628  	96.248312 
2719.800095  	96.238291 
2721.228561  	96.221113 
2722.657028  	96.219981 
2724.085494  	96.219608 
2725.513960  	96.200795 
2726.942427  	96.205018 
2728.370893  	96.209480 
2729.799360  	96.174460 
2731.227826  	96.146027 
2732.656293  	96.134364 
2734.084759  	96.125357 
2735.513225  	96.147399 
2736.941692  	96.169539 
2738.370158  	96.142367 
2739.798625  	96.100175 
2741.227091  	96.074058 
2742.655558  	96.046924 
2744.084024  	96.034316 
2745.512491  	96.055239 
2746.940957  	96.060741 
2748.369423  	96.032878 
2749.797890  	96.019078 
2751.226356  	96.012354 
2752.654823  	95.999362 
2754.083289  	95.995263 
2755.511756  	95.968553 
2756.940222  	95.942714 
2758.368688  	95.965318 
2759.797155  	95.971866 
2761.225621  	95.943209 
2762.654088  	95.927621 
2764.082554  	95.907774 
2765.511021  	95.884535 
2766.939487  	95.873916 
2768.367954  	95.867083 
2769.796420  	95.878516 
2771.224886  	95.882085 
2772.653353  	95.862216 
2774.081819  	95.857742 
2775.510286  	95.842915 
2776.938752  	95.812144 
2778.367219  	95.808380 
2779.795685  	95.789516 
2781.224151  	95.748730 
2782.652618  	95.749345 
2784.081084  	95.763785 
2785.509551  	95.741950 
2786.938017  	95.707560 
2788.366484  	95.694790 
2789.794950  	95.702857 
2791.223417  	95.700252 
2792.651883  	95.668411 
2794.080349  	95.624768 
2795.508816  	95.598276 
2796.937282  	95.601754 
2798.365749  	95.613505 
2799.794215  	95.615133 
2801.222682  	95.600919 
2802.651148  	95.556589 
2804.079614  	95.515417 
2805.508081  	95.511665 
2806.936547  	95.501004 
2808.365014  	95.472412 
2809.793480  	95.464177 
2811.221947  	95.466066 
2812.650413  	95.463762 
2814.078879  	95.452714 
2815.507346  	95.424200 
2816.935812  	95.411896 
2818.364279  	95.412813 
2819.792745  	95.372283 
2821.221212  	95.328237 
2822.649678  	95.326670 
2824.078145  	95.308162 
2825.506611  	95.275241 
2826.935077  	95.274166 
2828.363544  	95.244258 
2829.792010  	95.191901 
2831.220477  	95.197823 
2832.648943  	95.196523 
2834.077410  	95.146488 
2835.505876  	95.125552 
2836.934342  	95.108010 
2838.362809  	95.061330 
2839.791275  	95.043681 
2841.219742  	95.031581 
2842.648208  	94.990220 
2844.076675  	94.950452 
2845.505141  	94.902261 
2846.933608  	94.848135 
2848.362074  	94.814246 
2849.790540  	94.769320 
2851.219007  	94.701715 
2852.647473  	94.642001 
2854.075940  	94.598360 
2855.504406  	94.577822 
2856.932873  	94.577151 
2858.361339  	94.566009 
2859.789805  	94.538846 
2861.218272  	94.506873 
2862.646738  	94.459363 
2864.075205  	94.410734 
2865.503671  	94.381596 
2866.932138  	94.330253 
2868.360604  	94.253829 
2869.789071  	94.212595 
2871.217537  	94.189098 
2872.646003  	94.158477 
2874.074470  	94.166309 
2875.502936  	94.206746 
2876.931403  	94.247812 
2878.359869  	94.287514 
2879.788336  	94.313423 
2881.216802  	94.331004 
2882.645268  	94.346082 
2884.073735  	94.347841 
2885.502201  	94.350942 
2886.930668  	94.366827 
2888.359134  	94.391540 
2889.787601  	94.412686 
2891.216067  	94.417125 
2892.644533  	94.427108 
2894.073000  	94.443703 
2895.501466  	94.440956 
2896.929933  	94.434027 
2898.358399  	94.430511 
2899.786866  	94.424288 
2901.215332  	94.399153 
2902.643799  	94.311905 
2904.072265  	94.219762 
2905.500731  	94.202484 
2906.929198  	94.204489 
2908.357664  	94.191284 
2909.786131  	94.166987 
2911.214597  	94.083285 
2912.643064  	93.978059 
2914.071530  	93.927980 
2915.499996  	93.892666 
2916.928463  	93.832859 
2918.356929  	93.772394 
2919.785396  	93.708431 
2921.213862  	93.629191 
2922.642329  	93.567449 
2924.070795  	93.559282 
2925.499262  	93.575946 
2926.927728  	93.567397 
2928.356194  	93.548511 
2929.784661  	93.553372 
2931.213127  	93.568442 
2932.641594  	93.582966 
2934.070060  	93.624440 
2935.498527  	93.687469 
2936.926993  	93.736364 
2938.355459  	93.782325 
2939.783926  	93.835045 
2941.212392  	93.886026 
2942.640859  	93.942655 
2944.069325  	93.983094 
2945.497792  	94.017053 
2946.926258  	94.076710 
2948.354724  	94.100859 
2949.783191  	94.074963 
2951.211657  	94.064054 
2952.640124  	94.054593 
2954.068590  	94.041887 
2955.497057  	94.043785 
2956.925523  	94.030335 
2958.353990  	94.016803 
2959.782456  	94.041626 
2961.210922  	94.105243 
2962.639389  	94.173150 
2964.067855  	94.207370 
2965.496322  	94.271255 
2966.924788  	94.378049 
2968.353255  	94.420795 
2969.781721  	94.453892 
2971.210187  	94.555908 
2972.638654  	94.621576 
2974.067120  	94.635631 
2975.495587  	94.685471 
2976.924053  	94.761978 
2978.352520  	94.824694 
2979.780986  	94.854121 
2981.209453  	94.866966 
2982.637919  	94.909013 
2984.066385  	94.975265 
2985.494852  	95.031395 
2986.923318  	95.068547 
2988.351785  	95.098384 
2989.780251  	95.116037 
2991.208718  	95.111317 
2992.637184  	95.129529 
2994.065650  	95.181471 
2995.494117  	95.203800 
2996.922583  	95.200357 
2998.351050  	95.198027 
2999.779516  	95.186039 
3001.207983  	95.182438 
3002.636449  	95.181401 
3004.064916  	95.170527 
3005.493382  	95.180743 
3006.921848  	95.196285 
3008.350315  	95.183880 
3009.778781  	95.144117 
3011.207248  	95.086164 
3012.635714  	95.052515 
3014.064181  	95.052063 
3015.492647  	95.038146 
3016.921113  	95.026648 
3018.349580  	95.046913 
3019.778046  	95.050031 
3021.206513  	95.002348 
3022.634979  	94.961271 
3024.063446  	94.960354 
3025.491912  	94.931460 
3026.920378  	94.872466 
3028.348845  	94.867357 
3029.777311  	94.878670 
3031.205778  	94.843928 
3032.634244  	94.815625 
3034.062711  	94.792831 
3035.491177  	94.736300 
3036.919644  	94.712508 
3038.348110  	94.754499 
3039.776576  	94.780799 
3041.205043  	94.754806 
3042.633509  	94.711636 
3044.061976  	94.661447 
3045.490442  	94.636681 
3046.918909  	94.657928 
3048.347375  	94.644074 
3049.775841  	94.589374 
3051.204308  	94.574779 
3052.632774  	94.559938 
3054.061241  	94.518108 
3055.489707  	94.506921 
3056.918174  	94.510862 
3058.346640  	94.499184 
3059.775107  	94.467850 
3061.203573  	94.438546 
3062.632039  	94.458542 
3064.060506  	94.456826 
3065.488972  	94.393915 
3066.917439  	94.382589 
3068.345905  	94.400824 
3069.774372  	94.386865 
3071.202838  	94.407566 
3072.631304  	94.424618 
3074.059771  	94.381896 
3075.488237  	94.370856 
3076.916704  	94.417843 
3078.345170  	94.431439 
3079.773637  	94.387306 
3081.202103  	94.374526 
3082.630570  	94.416814 
3084.059036  	94.417924 
3085.487502  	94.370707 
3086.915969  	94.347577 
3088.344435  	94.356746 
3089.772902  	94.380969 
3091.201368  	94.386768 
3092.629835  	94.378803 
3094.058301  	94.399181 
3095.486767  	94.395082 
3096.915234  	94.365212 
3098.343700  	94.386687 
3099.772167  	94.390468 
3101.200633  	94.343685 
3102.629100  	94.357166 
3104.057566  	94.404445 
3105.486032  	94.377863 
3106.914499  	94.316947 
3108.342965  	94.313364 
3109.771432  	94.352553 
3111.199898  	94.373685 
3112.628365  	94.361562 
3114.056831  	94.309337 
3115.485298  	94.258823 
3116.913764  	94.277198 
3118.342230  	94.291544 
3119.770697  	94.244530 
3121.199163  	94.214971 
3122.627630  	94.200744 
3124.056096  	94.167370 
3125.484563  	94.150567 
3126.913029  	94.134106 
3128.341495  	94.118024 
3129.769962  	94.139020 
3131.198428  	94.151927 
3132.626895  	94.111377 
3134.055361  	94.059634 
3135.483828  	94.038786 
3136.912294  	94.010973 
3138.340761  	93.960415 
3139.769227  	93.956234 
3141.197693  	93.984705 
3142.626160  	93.973553 
3144.054626  	93.944354 
3145.483093  	93.913754 
3146.911559  	93.880489 
3148.340026  	93.865631 
3149.768492  	93.847234 
3151.196958  	93.822506 
3152.625425  	93.794974 
3154.053891  	93.753466 
3155.482358  	93.736345 
3156.910824  	93.716260 
3158.339291  	93.663502 
3159.767757  	93.646706 
3161.196224  	93.638887 
3162.624690  	93.598940 
3164.053156  	93.576746 
3165.481623  	93.552430 
3166.910089  	93.523966 
3168.338556  	93.519019 
3169.767022  	93.493665 
3171.195489  	93.459434 
3172.623955  	93.430458 
3174.052421  	93.388905 
3175.480888  	93.390027 
3176.909354  	93.418455 
3178.337821  	93.406101 
3179.766287  	93.374731 
3181.194754  	93.331024 
3182.623220  	93.272039 
3184.051686  	93.229351 
3185.480153  	93.199939 
3186.908619  	93.186695 
3188.337086  	93.187619 
3189.765552  	93.168768 
3191.194019  	93.131123 
3192.622485  	93.104634 
3194.050952  	93.110562 
3195.479418  	93.115772 
3196.907884  	93.066621 
3198.336351  	93.022853 
3199.764817  	93.047131 
3201.193284  	93.056442 
3202.621750  	93.016784 
3204.050217  	93.016436 
3205.478683  	93.051719 
3206.907149  	93.027812 
3208.335616  	92.945955 
3209.764082  	92.879329 
3211.192549  	92.860695 
3212.621015  	92.866246 
3214.049482  	92.851668 
3215.477948  	92.831169 
3216.906415  	92.848585 
3218.334881  	92.861186 
3219.763347  	92.837203 
3221.191814  	92.810198 
3222.620280  	92.769740 
3224.048747  	92.731636 
3225.477213  	92.737368 
3226.905680  	92.737791 
3228.334146  	92.711291 
3229.762612  	92.701453 
3231.191079  	92.692113 
3232.619545  	92.654675 
3234.048012  	92.611615 
3235.476478  	92.589615 
3236.904945  	92.592503 
3238.333411  	92.601111 
3239.761878  	92.573624 
3241.190344  	92.502008 
3242.618810  	92.464611 
3244.047277  	92.466435 
3245.475743  	92.400382 
3246.904210  	92.310319 
3248.332676  	92.297874 
3249.761143  	92.308924 
3251.189609  	92.300175 
3252.618075  	92.267853 
3254.046542  	92.219954 
3255.475008  	92.205850 
3256.903475  	92.169952 
3258.331941  	92.098884 
3259.760408  	92.096651 
3261.188874  	92.094246 
3262.617340  	92.021589 
3264.045807  	91.980320 
3265.474273  	91.983753 
3266.902740  	91.984423 
3268.331206  	91.981376 
3269.759673  	91.973564 
3271.188139  	91.957598 
3272.616606  	91.903743 
3274.045072  	91.849678 
3275.473538  	91.849997 
3276.902005  	91.848755 
3278.330471  	91.868452 
3279.758938  	91.921464 
3281.187404  	91.903629 
3282.615871  	91.867686 
3284.044337  	91.881526 
3285.472803  	91.891729 
3286.901270  	91.943931 
3288.329736  	92.021033 
3289.758203  	92.013750 
3291.186669  	91.993120 
3292.615136  	92.044739 
3294.043602  	92.100682 
3295.472069  	92.127590 
3296.900535  	92.177354 
3298.329001  	92.238796 
3299.757468  	92.264635 
3301.185934  	92.297337 
3302.614401  	92.335994 
3304.042867  	92.330318 
3305.471334  	92.366564 
3306.899800  	92.467761 
3308.328266  	92.523550 
3309.756733  	92.551560 
3311.185199  	92.611460 
3312.613666  	92.684534 
3314.042132  	92.734565 
3315.470599  	92.731240 
3316.899065  	92.735823 
3318.327531  	92.796858 
3319.755998  	92.876018 
3321.184464  	92.971470 
3322.612931  	93.022646 
3324.041397  	92.998026 
3325.469864  	93.030361 
3326.898330  	93.113534 
3328.326797  	93.146973 
3329.755263  	93.178054 
3331.183729  	93.234848 
3332.612196  	93.305766 
3334.040662  	93.377002 
3335.469129  	93.389256 
3336.897595  	93.381346 
3338.326062  	93.428337 
3339.754528  	93.503684 
3341.182994  	93.585599 
3342.611461  	93.658235 
3344.039927  	93.695756 
3345.468394  	93.710173 
3346.896860  	93.721057 
3348.325327  	93.755157 
3349.753793  	93.806849 
3351.182260  	93.838299 
3352.610726  	93.878437 
3354.039192  	93.944364 
3355.467659  	93.977955 
3356.896125  	93.991720 
3358.324592  	94.043407 
3359.753058  	94.085402 
3361.181525  	94.082669 
3362.609991  	94.114808 
3364.038457  	94.187571 
3365.466924  	94.218748 
3366.895390  	94.214891 
3368.323857  	94.222325 
3369.752323  	94.267887 
3371.180790  	94.353864 
3372.609256  	94.410911 
3374.037723  	94.431656 
3375.466189  	94.471906 
3376.894655  	94.495654 
3378.323122  	94.500454 
3379.751588  	94.545442 
3381.180055  	94.604955 
3382.608521  	94.638926 
3384.036988  	94.654775 
3385.465454  	94.682930 
3386.893920  	94.733283 
3388.322387  	94.768453 
3389.750853  	94.790944 
3391.179320  	94.799142 
3392.607786  	94.786116 
3394.036253  	94.837752 
3395.464719  	94.914693 
3396.893185  	94.910360 
3398.321652  	94.923686 
3399.750118  	94.992914 
3401.178585  	95.021360 
3402.607051  	95.037584 
3404.035518  	95.064794 
3405.463984  	95.082447 
3406.892451  	95.135141 
3408.320917  	95.211018 
3409.749383  	95.252228 
3411.177850  	95.261532 
3412.606316  	95.283032 
3414.034783  	95.327569 
3415.463249  	95.345501 
3416.891716  	95.342602 
3418.320182  	95.370428 
3419.748648  	95.407985 
3421.177115  	95.441402 
3422.605581  	95.490513 
3424.034048  	95.546242 
3425.462514  	95.600555 
3426.890981  	95.643048 
3428.319447  	95.675491 
3429.747914  	95.700005 
3431.176380  	95.701842 
3432.604846  	95.708470 
3434.033313  	95.742173 
3435.461779  	95.794798 
3436.890246  	95.845259 
3438.318712  	95.845477 
3439.747179  	95.846219 
3441.175645  	95.897430 
3442.604111  	95.922263 
3444.032578  	95.961593 
3445.461044  	96.043081 
3446.889511  	96.033410 
3448.317977  	96.006647 
3449.746444  	96.070089 
3451.174910  	96.092699 
3452.603377  	96.089509 
3454.031843  	96.157807 
3455.460309  	96.235619 
3456.888776  	96.267327 
3458.317242  	96.269419 
3459.745709  	96.300972 
3461.174175  	96.379709 
3462.602642  	96.407406 
3464.031108  	96.379344 
3465.459574  	96.395382 
3466.888041  	96.444224 
3468.316507  	96.469198 
3469.744974  	96.473212 
3471.173440  	96.503154 
3472.601907  	96.576315 
3474.030373  	96.613283 
3475.458839  	96.587660 
3476.887306  	96.609437 
3478.315772  	96.705876 
3479.744239  	96.761198 
3481.172705  	96.721159 
3482.601172  	96.688926 
3484.029638  	96.745494 
3485.458105  	96.829899 
3486.886571  	96.860113 
3488.315037  	96.820836 
3489.743504  	96.808027 
3491.171970  	96.883037 
3492.600437  	96.946362 
3494.028903  	96.961658 
3495.457370  	97.006344 
3496.885836  	97.053588 
3498.314302  	97.082226 
3499.742769  	97.127623 
3501.171235  	97.117249 
3502.599702  	97.040985 
3504.028168  	97.025026 
3505.456635  	97.079223 
3506.885101  	97.165724 
3508.313568  	97.248869 
3509.742034  	97.227460 
3511.170500  	97.188136 
3512.598967  	97.257438 
3514.027433  	97.298992 
3515.455900  	97.289437 
3516.884366  	97.349512 
3518.312833  	97.397884 
3519.741299  	97.409069 
3521.169765  	97.457973 
3522.598232  	97.427344 
3524.026698  	97.364835 
3525.455165  	97.450310 
3526.883631  	97.504386 
3528.312098  	97.470930 
3529.740564  	97.488996 
3531.169031  	97.488946 
3532.597497  	97.500357 
3534.025963  	97.559943 
3535.454430  	97.520074 
3536.882896  	97.475879 
3538.311363  	97.587594 
3539.739829  	97.702853 
3541.168296  	97.728119 
3542.596762  	97.739475 
3544.025228  	97.773859 
3545.453695  	97.801149 
3546.882161  	97.748815 
3548.310628  	97.708189 
3549.739094  	97.785408 
3551.167561  	97.838674 
3552.596027  	97.780958 
3554.024493  	97.744001 
3555.452960  	97.786790 
3556.881426  	97.852533 
3558.309893  	97.879067 
3559.738359  	97.853204 
3561.166826  	97.823572 
3562.595292  	97.857535 
3564.023759  	97.959891 
3565.452225  	98.034131 
3566.880691  	97.901141 
3568.309158  	97.770184 
3569.737624  	97.849009 
3571.166091  	97.939483 
3572.594557  	97.978272 
3574.023024  	97.981080 
3575.451490  	97.992546 
3576.879956  	98.015068 
3578.308423  	98.012648 
3579.736889  	98.011711 
3581.165356  	98.049247 
3582.593822  	98.067542 
3584.022289  	98.066924 
3585.450755  	98.090703 
3586.879222  	98.058571 
3588.307688  	97.963505 
3589.736154  	97.993776 
3591.164621  	98.061478 
3592.593087  	98.109259 
3594.021554  	98.141163 
3595.450020  	98.156973 
3596.878487  	98.152549 
3598.306953  	98.164147 
3599.735419  	98.166598 
3601.163886  	98.134540 
3602.592352  	98.123891 
3604.020819  	98.156912 
3605.449285  	98.207983 
3606.877752  	98.229998 
3608.306218  	98.162429 
3609.734685  	98.166767 
3611.163151  	98.287825 
3612.591617  	98.279651 
3614.020084  	98.156383 
3615.448550  	98.203891 
3616.877017  	98.321799 
3618.305483  	98.307006 
3619.733950  	98.128693 
3621.162416  	98.033736 
3622.590882  	98.133645 
3624.019349  	98.241559 
3625.447815  	98.303552 
3626.876282  	98.469697 
3628.304748  	98.578056 
3629.733215  	98.238018 
3631.161681  	98.201317 
3632.590147  	98.373375 
3634.018614  	98.386160 
3635.447080  	98.301910 
3636.875547  	98.285763 
3638.304013  	98.229021 
3639.732480  	98.217316 
3641.160946  	98.270403 
3642.589413  	98.222185 
3644.017879  	98.274376 
3645.446345  	98.528334 
3646.874812  	98.660289 
3648.303278  	98.567789 
3649.731745  	98.481768 
3651.160211  	98.166050 
3652.588678  	98.132941 
3654.017144  	98.377540 
3655.445610  	98.381483 
3656.874077  	98.058158 
3658.302543  	98.080424 
3659.731010  	98.224864 
3661.159476  	98.252137 
3662.587943  	98.287984 
3664.016409  	98.357041 
3665.444876  	98.374333 
3666.873342  	98.400190 
3668.301808  	98.479432 
3669.730275  	98.444890 
3671.158741  	98.252214 
3672.587208  	98.380833 
3674.015674  	98.628725 
3675.444141  	98.415343 
3676.872607  	98.163651 
3678.301073  	98.308187 
3679.729540  	98.272150 
3681.158006  	98.223889 
3682.586473  	98.297277 
3684.014939  	98.293937 
3685.443406  	98.316534 
3686.871872  	98.468762 
3688.300338  	98.459003 
3689.728805  	98.289259 
3691.157271  	98.223560 
3692.585738  	98.197414 
3694.014204  	98.256761 
3695.442671  	98.330327 
3696.871137  	98.314213 
3698.299604  	98.304700 
3699.728070  	98.345007 
3701.156536  	98.320633 
3702.585003  	98.249037 
3704.013469  	98.280032 
3705.441936  	98.368474 
3706.870402  	98.437274 
3708.298869  	98.440295 
3709.727335  	98.430531 
3711.155801  	98.356766 
3712.584268  	98.173438 
3714.012734  	98.129186 
3715.441201  	98.255564 
3716.869667  	98.336026 
3718.298134  	98.307112 
3719.726600  	98.351669 
3721.155067  	98.423960 
3722.583533  	98.309465 
3724.011999  	98.231309 
3725.440466  	98.269486 
3726.868932  	98.172904 
3728.297399  	98.163043 
3729.725865  	98.350137 
3731.154332  	98.427277 
3732.582798  	98.424875 
3734.011264  	98.456881 
3735.439731  	98.311212 
3736.868197  	98.112889 
3738.296664  	98.216750 
3739.725130  	98.277806 
3741.153597  	98.336651 
3742.582063  	98.522151 
3744.010530  	98.442490 
3745.438996  	97.991693 
3746.867462  	98.216567 
3748.295929  	98.444407 
3749.724395  	98.344280 
3751.152862  	98.162563 
3752.581328  	98.090695 
3754.009795  	98.118379 
3755.438261  	98.237147 
3756.866727  	98.291606 
3758.295194  	98.282732 
3759.723660  	98.266593 
3761.152127  	98.211618 
3762.580593  	98.259541 
3764.009060  	98.344912 
3765.437526  	98.225251 
3766.865992  	98.162226 
3768.294459  	98.287891 
3769.722925  	98.266635 
3771.151392  	98.132113 
3772.579858  	98.177106 
3774.008325  	98.236192 
3775.436791  	98.213511 
3776.865258  	98.280065 
3778.293724  	98.409332 
3779.722190  	98.290874 
3781.150657  	98.164469 
3782.579123  	98.287044 
3784.007590  	98.317268 
3785.436056  	98.180164 
3786.864523  	98.144108 
3788.292989  	98.134203 
3789.721455  	98.135390 
3791.149922  	98.159901 
3792.578388  	98.159642 
3794.006855  	98.228815 
3795.435321  	98.327122 
3796.863788  	98.221779 
3798.292254  	98.186022 
3799.720721  	98.371156 
3801.149187  	98.333506 
3802.577653  	98.021310 
3804.006120  	98.151265 
3805.434586  	98.352144 
3806.863053  	98.223259 
3808.291519  	98.046114 
3809.719986  	98.156423 
3811.148452  	98.206756 
3812.576918  	98.218968 
3814.005385  	98.452444 
3815.433851  	98.598364 
3816.862318  	98.295590 
3818.290784  	98.292912 
3819.719251  	98.459302 
3821.147717  	98.140008 
3822.576184  	97.867879 
3824.004650  	98.137851 
3825.433116  	98.309044 
3826.861583  	98.198847 
3828.290049  	98.123970 
3829.718516  	98.218055 
3831.146982  	98.295822 
3832.575449  	98.311485 
3834.003915  	98.347597 
3835.432381  	98.397420 
3836.860848  	98.386968 
3838.289314  	98.232421 
3839.717781  	98.064148 
3841.146247  	98.117620 
3842.574714  	98.224657 
3844.003180  	98.153506 
3845.431646  	98.087029 
3846.860113  	98.183441 
3848.288579  	98.225799 
3849.717046  	98.265925 
3851.145512  	98.534696 
3852.573979  	98.633543 
3854.002445  	98.011111 
3855.430912  	97.944577 
3856.859378  	98.061370 
3858.287844  	98.140735 
3859.716311  	98.256587 
3861.144777  	98.268229 
3862.573244  	98.264284 
3864.001710  	98.281968 
3865.430177  	98.090418 
3866.858643  	98.177431 
3868.287109  	98.473873 
3869.715576  	98.311399 
3871.144042  	98.070302 
3872.572509  	98.312312 
3874.000975  	98.309929 
3875.429442  	98.051885 
3876.857908  	98.085735 
3878.286375  	98.261315 
3879.714841  	98.298491 
3881.143307  	98.092116 
3882.571774  	98.124008 
3884.000240  	98.366787 
3885.428707  	98.313432 
3886.857173  	98.060253 
3888.285640  	98.183864 
3889.714106  	98.326797 
3891.142572  	98.191989 
3892.571039  	97.984203 
3893.999505  	98.015040 
3895.427972  	98.165287 
3896.856438  	98.276684 
3898.284905  	98.259932 
3899.713371  	98.154018 
3901.141838  	98.148624 
3902.570304  	98.243319 
3903.998770  	98.166578 
3905.427237  	97.981641 
3906.855703  	98.006695 
3908.284170  	98.124452 
3909.712636  	98.165517 
3911.141103  	98.141402 
3912.569569  	98.121348 
3913.998035  	98.186106 
3915.426502  	98.242994 
3916.854968  	98.153731 
3918.283435  	98.091355 
3919.711901  	98.114505 
3921.140368  	98.137608 
3922.568834  	98.216825 
3923.997300  	98.192953 
3925.425767  	98.002138 
3926.854233  	98.017292 
3928.282700  	98.175518 
3929.711166  	98.218707 
3931.139633  	98.183675 
3932.568099  	98.141066 
3933.996566  	98.101445 
3935.425032  	98.137335 
3936.853498  	98.177046 
3938.281965  	98.160384 
3939.710431  	98.176012 
3941.138898  	98.208754 
3942.567364  	98.114356 
3943.995831  	98.030642 
3945.424297  	98.106248 
3946.852763  	98.173470 
3948.281230  	98.120752 
3949.709696  	98.070860 
3951.138163  	98.078532 
3952.566629  	98.101458 
3953.995096  	98.103283 
3955.423562  	98.063821 
3956.852029  	98.032656 
3958.280495  	98.054133 
3959.708961  	98.106128 
3961.137428  	98.140532 
3962.565894  	98.122044 
3963.994361  	98.114647 
3965.422827  	98.148529 
3966.851294  	98.135262 
3968.279760  	98.098873 
3969.708226  	98.118347 
3971.136693  	98.152783 
3972.565159  	98.152538 
3973.993626  	98.100630 
3975.422092  	98.035901 
3976.850559  	98.036286 
3978.279025  	98.072850 
3979.707491  	98.090311 
3981.135958  	98.085827 
3982.564424  	98.069473 
3983.992891  	98.078762 
3985.421357  	98.104286 
3986.849824  	98.106470 
3988.278290  	98.101585 
3989.706757  	98.097083 
3991.135223  	98.095491 
3992.563689  	98.089312 
3993.992156  	98.044980 
3995.420622  	98.014577 
3996.849089  	98.052780 
3998.277555  	98.098335 
3999.706022  	98.084341 
