##TITLE=No Description
##DATA TYPE=INFRARED SPECTRUM
##XUNITS=1/CM
##YUNITS=%T
399.970602  	66.884935 
401.399069  	65.323976 
402.827535  	63.789785 
404.256001  	63.764360 
405.684468  	63.730048 
407.112934  	62.831295 
408.541401  	62.687041 
409.969867  	62.328525 
411.398334  	61.991241 
412.826800  	63.347854 
414.255267  	63.663338 
415.683733  	62.296497 
417.112199  	62.948752 
418.540666  	65.964475 
419.969132  	65.038035 
421.397599  	64.453905 
422.826065  	64.656363 
424.254532  	63.654641 
425.682998  	63.303189 
427.111464  	63.901337 
428.539931  	64.129184 
429.968397  	64.620988 
431.396864  	64.870042 
432.825330  	63.542654 
434.253797  	62.383045 
435.682263  	62.714249 
437.110730  	63.292217 
438.539196  	63.710334 
439.967662  	64.068009 
441.396129  	63.871780 
442.824595  	63.155206 
444.253062  	61.928827 
445.681528  	60.616263 
447.109995  	60.438244 
448.538461  	61.303433 
449.966927  	61.909959 
451.395394  	61.456930 
452.823860  	60.322069 
454.252327  	60.703632 
455.680793  	61.932705 
457.109260  	61.709133 
458.537726  	60.156959 
459.966192  	59.423548 
461.394659  	59.225933 
462.823125  	59.122067 
464.251592  	58.286625 
465.680058  	57.554226 
467.108525  	58.386080 
468.536991  	59.607217 
469.965458  	59.720190 
471.393924  	59.032619 
472.822390  	58.524679 
474.250857  	58.846282 
475.679323  	58.663444 
477.107790  	58.040928 
478.536256  	58.139692 
479.964723  	58.313395 
481.393189  	58.287422 
482.821655  	58.540891 
484.250122  	58.583076 
485.678588  	58.481711 
487.107055  	58.463233 
488.535521  	58.134727 
489.963988  	57.830937 
491.392454  	58.043163 
492.820921  	58.550149 
494.249387  	58.826800 
495.677853  	58.804072 
497.106320  	58.454094 
498.534786  	57.747130 
499.963253  	57.352257 
501.391719  	57.326938 
502.820186  	57.006919 
504.248652  	57.022455 
505.677118  	57.361388 
507.105585  	57.075169 
508.534051  	56.907400 
509.962518  	57.282713 
511.390984  	57.168901 
512.819451  	56.688731 
514.247917  	56.479057 
515.676384  	56.558826 
517.104850  	56.832327 
518.533316  	56.875888 
519.961783  	56.752157 
521.390249  	56.780720 
522.818716  	56.912028 
524.247182  	57.243059 
525.675649  	57.520409 
527.104115  	57.288338 
528.532581  	56.855827 
529.961048  	56.551465 
531.389514  	56.588758 
532.817981  	56.833339 
534.246447  	56.993217 
535.674914  	57.229693 
537.103380  	57.280817 
538.531846  	57.012988 
539.960313  	57.005684 
541.388779  	57.168998 
542.817246  	57.340469 
544.245712  	57.665369 
545.674179  	57.715302 
547.102645  	57.629702 
548.531112  	57.914191 
549.959578  	58.146211 
551.388044  	58.272882 
552.816511  	58.617452 
554.244977  	58.831640 
555.673444  	58.698876 
557.101910  	58.564770 
558.530377  	58.695347 
559.958843  	58.893591 
561.387309  	58.818363 
562.815776  	58.718981 
564.244242  	58.983788 
565.672709  	59.348503 
567.101175  	59.451786 
568.529642  	59.399076 
569.958108  	59.582372 
571.386575  	60.058797 
572.815041  	60.408571 
574.243507  	60.566913 
575.671974  	60.755198 
577.100440  	60.833701 
578.528907  	60.801891 
579.957373  	60.961987 
581.385840  	61.292381 
582.814306  	61.555119 
584.242772  	61.759513 
585.671239  	61.879697 
587.099705  	61.823520 
588.528172  	61.772878 
589.956638  	61.871698 
591.385105  	61.950556 
592.813571  	61.919401 
594.242037  	61.843391 
595.670504  	61.692818 
597.098970  	61.629070 
598.527437  	61.766708 
599.955903  	61.850446 
601.384370  	61.822010 
602.812836  	61.795112 
604.241303  	61.772163 
605.669769  	61.775766 
607.098235  	61.773597 
608.526702  	61.579285 
609.955168  	61.359937 
611.383635  	61.199715 
612.812101  	61.120931 
614.240568  	61.191257 
615.669034  	61.338831 
617.097500  	61.408361 
618.525967  	61.447464 
619.954433  	61.640608 
621.382900  	61.995761 
622.811366  	62.367336 
624.239833  	62.655804 
625.668299  	62.907634 
627.096766  	63.131229 
628.525232  	63.362754 
629.953698  	63.565375 
631.382165  	63.644028 
632.810631  	63.774697 
634.239098  	63.870525 
635.667564  	63.892788 
637.096031  	63.966298 
638.524497  	64.065204 
639.952963  	64.107654 
641.381430  	64.186570 
642.809896  	64.435052 
644.238363  	64.702395 
645.666829  	64.954952 
647.095296  	65.149707 
648.523762  	65.288726 
649.952229  	65.402772 
651.380695  	65.566345 
652.809161  	65.738697 
654.237628  	65.891174 
655.666094  	66.037444 
657.094561  	66.126814 
658.523027  	66.113811 
659.951494  	66.110490 
661.379960  	66.137415 
662.808426  	66.239286 
664.236893  	66.328328 
665.665359  	66.508757 
667.093826  	66.856836 
668.522292  	66.850008 
669.950759  	66.731337 
671.379225  	66.947009 
672.807691  	67.231100 
674.236158  	67.436990 
675.664624  	67.731877 
677.093091  	68.076282 
678.521557  	68.377308 
679.950024  	68.593592 
681.378490  	68.832057 
682.806957  	69.245062 
684.235423  	69.699616 
685.663889  	70.012503 
687.092356  	70.332270 
688.520822  	70.613846 
689.949289  	70.867101 
691.377755  	71.085188 
692.806222  	71.101049 
694.234688  	71.099351 
695.663154  	71.178902 
697.091621  	71.351303 
698.520087  	71.620102 
699.948554  	71.856886 
701.377020  	72.071472 
702.805487  	72.496797 
704.233953  	72.976339 
705.662420  	73.447156 
707.090886  	73.892105 
708.519352  	74.137213 
709.947819  	74.476931 
711.376285  	74.848397 
712.804752  	75.185845 
714.233218  	75.530072 
715.661685  	75.904192 
717.090151  	76.193086 
718.518617  	76.388909 
719.947084  	76.499507 
721.375550  	76.714405 
722.804017  	77.107027 
724.232483  	77.465091 
725.660950  	77.790267 
727.089416  	78.123603 
728.517883  	78.333155 
729.946349  	78.530087 
731.374815  	78.742566 
732.803282  	78.927866 
734.231748  	79.126677 
735.660215  	79.335434 
737.088681  	79.442510 
738.517148  	79.550205 
739.945614  	79.578822 
741.374080  	79.683095 
742.802547  	79.892198 
744.231013  	80.117403 
745.659480  	80.330826 
747.087946  	80.492137 
748.516413  	80.700133 
749.944879  	80.990814 
751.373345  	81.256916 
752.801812  	81.514768 
754.230278  	81.708718 
755.658745  	81.854891 
757.087211  	82.085049 
758.515678  	82.277126 
759.944144  	82.419322 
761.372611  	82.605791 
762.801077  	82.738328 
764.229543  	82.873871 
765.658010  	83.047028 
767.086476  	83.205033 
768.514943  	83.438449 
769.943409  	83.625786 
771.371876  	83.677142 
772.800342  	83.729504 
774.228808  	83.729738 
775.657275  	83.650088 
777.085741  	83.528639 
778.514208  	83.403312 
779.942674  	83.494879 
781.371141  	83.789890 
782.799607  	84.109203 
784.228074  	84.440686 
785.656540  	84.655175 
787.085006  	84.824352 
788.513473  	85.119956 
789.941939  	85.331847 
791.370406  	85.437031 
792.798872  	85.588292 
794.227339  	85.730898 
795.655805  	85.872710 
797.084271  	86.007317 
798.512738  	86.160723 
799.941204  	86.408949 
801.369671  	86.604889 
802.798137  	86.714031 
804.226604  	86.807404 
805.655070  	86.839012 
807.083537  	86.841468 
808.512003  	86.802306 
809.940469  	86.779152 
811.368936  	86.890619 
812.797402  	86.956058 
814.225869  	86.923874 
815.654335  	86.937993 
817.082802  	86.941155 
818.511268  	86.962049 
819.939734  	87.043486 
821.368201  	87.101460 
822.796667  	87.141531 
824.225134  	87.121681 
825.653600  	87.106058 
827.082067  	87.252954 
828.510533  	87.457975 
829.938999  	87.628755 
831.367466  	87.752636 
832.795932  	87.772770 
834.224399  	87.731068 
835.652865  	87.590035 
837.081332  	87.380304 
838.509798  	87.235322 
839.938265  	87.043845 
841.366731  	86.751737 
842.795197  	86.462784 
844.223664  	86.167447 
845.652130  	85.843408 
847.080597  	85.475393 
848.509063  	85.144657 
849.937530  	84.974348 
851.365996  	84.867099 
852.794462  	84.810361 
854.222929  	84.875241 
855.651395  	84.900596 
857.079862  	84.917666 
858.508328  	85.070163 
859.936795  	85.223319 
861.365261  	85.380129 
862.793728  	85.629366 
864.222194  	85.906104 
865.650660  	86.257600 
867.079127  	86.719609 
868.507593  	87.250162 
869.936060  	87.816312 
871.364526  	88.329888 
872.792993  	88.827722 
874.221459  	89.322034 
875.649925  	89.740091 
877.078392  	90.136229 
878.506858  	90.458065 
879.935325  	90.637034 
881.363791  	90.740420 
882.792258  	90.787599 
884.220724  	90.852720 
885.649190  	90.947310 
887.077657  	90.964362 
888.506123  	90.941801 
889.934590  	90.914651 
891.363056  	90.820012 
892.791523  	90.637360 
894.219989  	90.400987 
895.648456  	90.177370 
897.076922  	89.956881 
898.505388  	89.685442 
899.933855  	89.357626 
901.362321  	88.990143 
902.790788  	88.591277 
904.219254  	88.078406 
905.647721  	87.452890 
907.076187  	86.859278 
908.504653  	86.278209 
909.933120  	85.694455 
911.361586  	85.202419 
912.790053  	84.790727 
914.218519  	84.461990 
915.646986  	84.232010 
917.075452  	84.072990 
918.503919  	83.963101 
919.932385  	83.846171 
921.360851  	83.778540 
922.789318  	83.820652 
924.217784  	83.874416 
925.646251  	83.993317 
927.074717  	84.259974 
928.503184  	84.611231 
929.931650  	85.097487 
931.360116  	85.695405 
932.788583  	86.296731 
934.217049  	86.972781 
935.645516  	87.690961 
937.073982  	88.323594 
938.502449  	88.855814 
939.930915  	89.252200 
941.359382  	89.579063 
942.787848  	89.883296 
944.216314  	90.013205 
945.644781  	89.952325 
947.073247  	89.766030 
948.501714  	89.474516 
949.930180  	89.118972 
951.358647  	88.636849 
952.787113  	88.061201 
954.215579  	87.485254 
955.644046  	86.832521 
957.072512  	86.122953 
958.500979  	85.400894 
959.929445  	84.633732 
961.357912  	83.899093 
962.786378  	83.193672 
964.214844  	82.510760 
965.643311  	81.937298 
967.071777  	81.402825 
968.500244  	80.895447 
969.928710  	80.512249 
971.357177  	80.218569 
972.785643  	79.996301 
974.214110  	79.827742 
975.642576  	79.622836 
977.071042  	79.304579 
978.499509  	78.900935 
979.927975  	78.676216 
981.356442  	78.712053 
982.784908  	78.703343 
984.213375  	78.548921 
985.641841  	78.274348 
987.070307  	77.817384 
988.498774  	77.298932 
989.927240  	76.803883 
991.355707  	76.355389 
992.784173  	76.089832 
994.212640  	75.977591 
995.641106  	75.996027 
997.069573  	76.207596 
998.498039  	76.485174 
999.926505  	76.802155 
1001.354972  	77.176085 
1002.783438  	77.453710 
1004.211905  	77.589519 
1005.640371  	77.572080 
1007.068838  	77.345059 
1008.497304  	76.921177 
1009.925770  	76.292692 
1011.354237  	75.456076 
1012.782703  	74.393390 
1014.211170  	73.083707 
1015.639636  	71.711131 
1017.068103  	70.344261 
1018.496569  	68.766796 
1019.925036  	67.078464 
1021.353502  	65.474885 
1022.781968  	63.853541 
1024.210435  	62.266755 
1025.638901  	60.759439 
1027.067368  	59.299497 
1028.495834  	58.010328 
1029.924301  	56.844178 
1031.352767  	55.802545 
1032.781233  	54.942533 
1034.209700  	54.169662 
1035.638166  	53.566204 
1037.066633  	53.071805 
1038.495099  	52.629477 
1039.923566  	52.424903 
1041.352032  	52.334914 
1042.780498  	52.353033 
1044.208965  	52.586267 
1045.637431  	52.932714 
1047.065898  	53.513923 
1048.494364  	54.170970 
1049.922831  	54.735923 
1051.351297  	55.449338 
1052.779764  	56.160369 
1054.208230  	56.843082 
1055.636696  	57.684023 
1057.065163  	58.574779 
1058.493629  	59.641556 
1059.922096  	60.749609 
1061.350562  	61.669716 
1062.779029  	62.663047 
1064.207495  	63.624230 
1065.635961  	64.425632 
1067.064428  	65.163546 
1068.492894  	65.725806 
1069.921361  	66.270066 
1071.349827  	66.778012 
1072.778294  	67.042985 
1074.206760  	67.275016 
1075.635227  	67.403207 
1077.063693  	67.347536 
1078.492159  	67.331199 
1079.920626  	67.205141 
1081.349092  	67.020180 
1082.777559  	66.996836 
1084.206025  	66.960096 
1085.634492  	66.942325 
1087.062958  	66.944577 
1088.491424  	66.840834 
1089.919891  	66.784165 
1091.348357  	66.694800 
1092.776824  	66.462973 
1094.205290  	66.153974 
1095.633757  	65.718724 
1097.062223  	65.303650 
1098.490690  	64.909863 
1099.919156  	64.437139 
1101.347622  	64.172523 
1102.776089  	64.058265 
1104.204555  	63.992097 
1105.633022  	64.208198 
1107.061488  	64.512018 
1108.489955  	64.877030 
1109.918421  	65.424286 
1111.346887  	65.946219 
1112.775354  	66.583306 
1114.203820  	67.336081 
1115.632287  	68.031138 
1117.060753  	68.876107 
1118.489220  	69.794784 
1119.917686  	70.682492 
1121.346152  	71.629137 
1122.774619  	72.499626 
1124.203085  	73.317423 
1125.631552  	74.126473 
1127.060018  	74.844847 
1128.488485  	75.516259 
1129.916951  	76.101281 
1131.345418  	76.604908 
1132.773884  	77.115129 
1134.202350  	77.650304 
1135.630817  	78.290367 
1137.059283  	78.967631 
1138.487750  	79.505458 
1139.916216  	79.900043 
1141.344683  	80.210748 
1142.773149  	80.483034 
1144.201615  	80.668200 
1145.630082  	80.756689 
1147.058548  	80.846137 
1148.487015  	80.912805 
1149.915481  	80.957612 
1151.343948  	80.984346 
1152.772414  	80.917798 
1154.200881  	80.865043 
1155.629347  	80.831844 
1157.057813  	80.688787 
1158.486280  	80.533877 
1159.914746  	80.375940 
1161.343213  	80.161846 
1162.771679  	79.993130 
1164.200146  	79.797363 
1165.628612  	79.515139 
1167.057078  	79.268989 
1168.485545  	79.046219 
1169.914011  	78.813171 
1171.342478  	78.623967 
1172.770944  	78.519604 
1174.199411  	78.523779 
1175.627877  	78.548241 
1177.056344  	78.536532 
1178.484810  	78.545669 
1179.913276  	78.553705 
1181.341743  	78.552594 
1182.770209  	78.555466 
1184.198676  	78.528532 
1185.627142  	78.495681 
1187.055609  	78.460305 
1188.484075  	78.410721 
1189.912541  	78.349515 
1191.341008  	78.239044 
1192.769474  	78.118798 
1194.197941  	78.015699 
1195.626407  	77.885463 
1197.054874  	77.753621 
1198.483340  	77.598319 
1199.911806  	77.396270 
1201.340273  	77.214911 
1202.768739  	77.046817 
1204.197206  	76.871749 
1205.625672  	76.670025 
1207.054139  	76.417086 
1208.482605  	76.204180 
1209.911072  	76.015770 
1211.339538  	75.764261 
1212.768004  	75.511979 
1214.196471  	75.249393 
1215.624937  	74.949917 
1217.053404  	74.674659 
1218.481870  	74.410910 
1219.910337  	74.190925 
1221.338803  	74.009335 
1222.767269  	73.784488 
1224.195736  	73.585708 
1225.624202  	73.401021 
1227.052669  	73.185955 
1228.481135  	73.061901 
1229.909602  	73.017544 
1231.338068  	73.037847 
1232.766535  	73.164238 
1234.195001  	73.299788 
1235.623467  	73.449084 
1237.051934  	73.612407 
1238.480400  	73.738992 
1239.908867  	73.914879 
1241.337333  	74.110528 
1242.765800  	74.287298 
1244.194266  	74.502460 
1245.622732  	74.707664 
1247.051199  	74.926951 
1248.479665  	75.177069 
1249.908132  	75.402563 
1251.336598  	75.646993 
1252.765065  	75.870961 
1254.193531  	76.048074 
1255.621997  	76.219210 
1257.050464  	76.322703 
1258.478930  	76.389080 
1259.907397  	76.450454 
1261.335863  	76.493902 
1262.764330  	76.631022 
1264.192796  	76.840523 
1265.621263  	77.058317 
1267.049729  	77.285310 
1268.478195  	77.392992 
1269.906662  	77.384500 
1271.335128  	77.328030 
1272.763595  	77.191166 
1274.192061  	77.057612 
1275.620528  	76.918693 
1277.048994  	76.713883 
1278.477460  	76.557904 
1279.905927  	76.482651 
1281.334393  	76.520241 
1282.762860  	76.708394 
1284.191326  	76.900624 
1285.619793  	77.020192 
1287.048259  	76.991899 
1288.476726  	76.836279 
1289.905192  	76.808945 
1291.333658  	76.888715 
1292.762125  	76.971510 
1294.190591  	77.106682 
1295.619058  	77.185188 
1297.047524  	77.247349 
1298.475991  	77.385083 
1299.904457  	77.444372 
1301.332923  	77.440032 
1302.761390  	77.445753 
1304.189856  	77.460018 
1305.618323  	77.534744 
1307.046789  	77.613733 
1308.475256  	77.692352 
1309.903722  	77.820558 
1311.332189  	77.948394 
1312.760655  	78.130576 
1314.189121  	78.346219 
1315.617588  	78.538907 
1317.046054  	78.804078 
1318.474521  	79.053151 
1319.902987  	79.239110 
1321.331454  	79.469244 
1322.759920  	79.668157 
1324.188386  	79.816471 
1325.616853  	79.971309 
1327.045319  	80.069368 
1328.473786  	80.115486 
1329.902252  	80.133252 
1331.330719  	80.151929 
1332.759185  	80.151189 
1334.187651  	80.140073 
1335.616118  	80.136790 
1337.044584  	80.128592 
1338.473051  	80.091385 
1339.901517  	80.046841 
1341.329984  	80.011892 
1342.758450  	80.031853 
1344.186917  	80.059757 
1345.615383  	80.052442 
1347.043849  	80.054435 
1348.472316  	80.007635 
1349.900782  	79.927121 
1351.329249  	79.840819 
1352.757715  	79.673839 
1354.186182  	79.469596 
1355.614648  	79.264071 
1357.043114  	79.342202 
1358.471581  	79.146158 
1359.900047  	78.967021 
1361.328514  	78.775455 
1362.756980  	78.425051 
1364.185447  	77.917125 
1365.613913  	77.514738 
1367.042380  	77.140821 
1368.470846  	76.716069 
1369.899312  	76.388690 
1371.327779  	76.183046 
1372.756245  	75.983981 
1374.184712  	75.534145 
1375.613178  	74.879911 
1377.041645  	74.335010 
1378.470111  	73.696941 
1379.898577  	73.101629 
1381.327044  	72.793080 
1382.755510  	72.516619 
1384.183977  	72.273278 
1385.612443  	72.116641 
1387.040910  	71.853381 
1388.469376  	71.574975 
1389.897843  	71.444216 
1391.326309  	71.397262 
1392.754775  	71.380321 
1394.183242  	71.281699 
1395.611708  	71.097300 
1397.040175  	71.101648 
1398.468641  	71.211610 
1399.897108  	71.161820 
1401.325574  	71.188738 
1402.754040  	71.467987 
1404.182507  	71.737973 
1405.610973  	71.946093 
1407.039440  	72.264078 
1408.467906  	72.543211 
1409.896373  	72.791543 
1411.324839  	73.045784 
1412.753305  	73.267087 
1414.181772  	73.523402 
1415.610238  	73.785376 
1417.038705  	74.046620 
1418.467171  	74.326491 
1419.895638  	74.484549 
1421.324104  	74.685697 
1422.752571  	74.978395 
1424.181037  	75.194223 
1425.609503  	75.376063 
1427.037970  	75.608731 
1428.466436  	75.732743 
1429.894903  	75.672089 
1431.323369  	75.577055 
1432.751836  	75.408156 
1434.180302  	75.359071 
1435.608768  	75.326034 
1437.037235  	74.852678 
1438.465701  	74.604393 
1439.894168  	74.500418 
1441.322634  	74.387657 
1442.751101  	74.255408 
1444.179567  	74.120809 
1445.608034  	74.068552 
1447.036500  	73.982394 
1448.464966  	73.736081 
1449.893433  	73.651032 
1451.321899  	73.604382 
1452.750366  	73.591904 
1454.178832  	73.838804 
1455.607299  	74.237337 
1457.035765  	74.612612 
1458.464231  	74.777097 
1459.892698  	75.138202 
1461.321164  	75.709327 
1462.749631  	76.203327 
1464.178097  	76.647461 
1465.606564  	76.880177 
1467.035030  	77.079839 
1468.463497  	77.619966 
1469.891963  	78.295973 
1471.320429  	79.028147 
1472.748896  	79.860965 
1474.177362  	80.329139 
1475.605829  	80.843762 
1477.034295  	81.306069 
1478.462762  	81.502900 
1479.891228  	81.801714 
1481.319694  	81.927042 
1482.748161  	81.834300 
1484.176627  	81.842920 
1485.605094  	81.665757 
1487.033560  	81.311343 
1488.462027  	80.995657 
1489.890493  	80.314824 
1491.318959  	79.365735 
1492.747426  	78.758361 
1494.175892  	78.323891 
1495.604359  	77.691183 
1497.032825  	76.664908 
1498.461292  	75.788888 
1499.889758  	75.017751 
1501.318225  	74.164522 
1502.746691  	73.394098 
1504.175157  	72.871658 
1505.603624  	72.395327 
1507.032090  	70.313764 
1508.460557  	68.409460 
1509.889023  	67.695677 
1511.317490  	66.798912 
1512.745956  	65.612355 
1514.174422  	64.737908 
1515.602889  	64.200182 
1517.031355  	63.317772 
1518.459822  	62.769538 
1519.888288  	62.890467 
1521.316755  	62.340180 
1522.745221  	61.110077 
1524.173688  	60.864609 
1525.602154  	60.384104 
1527.030620  	59.626908 
1528.459087  	59.113839 
1529.887553  	58.646062 
1531.316020  	58.504684 
1532.744486  	58.305740 
1534.172953  	57.510888 
1535.601419  	57.301170 
1537.029885  	57.412779 
1538.458352  	57.693492 
1539.886818  	57.458353 
1541.315285  	56.800669 
1542.743751  	57.205929 
1544.172218  	57.451126 
1545.600684  	57.793245 
1547.029151  	58.534274 
1548.457617  	59.266978 
1549.886083  	60.300610 
1551.314550  	61.384740 
1552.743016  	62.345095 
1554.171483  	63.668898 
1555.599949  	64.779822 
1557.028416  	65.830469 
1558.456882  	67.460958 
1559.885348  	68.013196 
1561.313815  	68.810430 
1562.742281  	69.547041 
1564.170748  	70.191478 
1565.599214  	70.958720 
1567.027681  	71.560088 
1568.456147  	72.239491 
1569.884613  	72.853063 
1571.313080  	73.205691 
1572.741546  	73.564108 
1574.170013  	73.932755 
1575.598479  	74.239596 
1577.026946  	74.461662 
1578.455412  	74.584346 
1579.883879  	74.811640 
1581.312345  	74.984269 
1582.740811  	75.102690 
1584.169278  	75.275609 
1585.597744  	75.329910 
1587.026211  	75.371205 
1588.454677  	75.198707 
1589.883144  	74.886207 
1591.311610  	74.638715 
1592.740076  	74.367615 
1594.168543  	73.993980 
1595.597009  	73.704698 
1597.025476  	73.333264 
1598.453942  	72.975242 
1599.882409  	72.266650 
1601.310875  	71.423286 
1602.739342  	70.771067 
1604.167808  	70.112176 
1605.596274  	69.180616 
1607.024741  	68.551185 
1608.453207  	67.419956 
1609.881674  	66.170542 
1611.310140  	65.268922 
1612.738607  	64.215937 
1614.167073  	63.249292 
1615.595539  	62.393474 
1617.024006  	60.051378 
1618.452472  	58.489031 
1619.880939  	57.316772 
1621.309405  	56.102263 
1622.737872  	55.034488 
1624.166338  	53.113867 
1625.594804  	52.060122 
1627.023271  	51.604436 
1628.451737  	50.516205 
1629.880204  	50.053619 
1631.308670  	49.855304 
1632.737137  	49.548976 
1634.165603  	49.887362 
1635.594070  	49.753938 
1637.022536  	49.316438 
1638.451002  	49.795069 
1639.879469  	49.878174 
1641.307935  	50.079379 
1642.736402  	50.401085 
1644.164868  	50.438002 
1645.593335  	50.850415 
1647.021801  	50.852813 
1648.450267  	50.555686 
1649.878734  	51.215937 
1651.307200  	51.681238 
1652.735667  	52.264514 
1654.164133  	53.526190 
1655.592600  	53.862782 
1657.021066  	55.133698 
1658.449533  	56.662802 
1659.877999  	57.938789 
1661.306465  	59.628205 
1662.734932  	61.244564 
1664.163398  	62.687676 
1665.591865  	64.273275 
1667.020331  	65.402238 
1668.448798  	66.578897 
1669.877264  	67.902030 
1671.305730  	68.891848 
1672.734197  	70.067691 
1674.162663  	71.240797 
1675.591130  	72.334127 
1677.019596  	73.569439 
1678.448063  	74.618880 
1679.876529  	75.638988 
1681.304996  	76.847205 
1682.733462  	77.733119 
1684.161928  	78.823986 
1685.590395  	80.055477 
1687.018861  	80.807522 
1688.447328  	81.894979 
1689.875794  	82.959151 
1691.304261  	83.879463 
1692.732727  	84.961169 
1694.161193  	85.515980 
1695.589660  	86.381192 
1697.018126  	87.804723 
1698.446593  	88.272162 
1699.875059  	89.341448 
1701.303526  	90.416970 
1702.731992  	90.409808 
1704.160458  	90.989101 
1705.588925  	91.399127 
1707.017391  	91.594801 
1708.445858  	92.059069 
1709.874324  	92.229851 
1711.302791  	92.933917 
1712.731257  	93.282657 
1714.159724  	93.285889 
1715.588190  	93.425769 
1717.016656  	93.447989 
1718.445123  	92.653918 
1719.873589  	91.887236 
1721.302056  	91.061859 
1722.730522  	90.482198 
1724.158989  	90.620721 
1725.587455  	91.084679 
1727.015921  	91.812279 
1728.444388  	92.391907 
1729.872854  	92.840893 
1731.301321  	93.359318 
1732.729787  	93.761190 
1734.158254  	94.044445 
1735.586720  	94.322342 
1737.015187  	94.496352 
1738.443653  	94.894844 
1739.872119  	95.297024 
1741.300586  	95.512693 
1742.729052  	95.926837 
1744.157519  	96.338914 
1745.585985  	96.743893 
1747.014452  	97.317690 
1748.442918  	97.818360 
1749.871384  	98.357222 
1751.299851  	98.991453 
1752.728317  	99.479313 
1754.156784  	100.031133 
1755.585250  	100.439496 
1757.013717  	100.784041 
1758.442183  	101.158454 
1759.870650  	101.413982 
1761.299116  	101.667858 
1762.727582  	101.959123 
1764.156049  	102.086429 
1765.584515  	102.295469 
1767.012982  	102.400216 
1768.441448  	102.372936 
1769.869915  	102.490319 
1771.298381  	102.571494 
1772.726847  	102.563899 
1774.155314  	102.617488 
1775.583780  	102.558506 
1777.012247  	102.603320 
1778.440713  	102.683087 
1779.869180  	102.663056 
1781.297646  	102.744909 
1782.726112  	102.777980 
1784.154579  	102.786735 
1785.583045  	102.897808 
1787.011512  	102.877699 
1788.439978  	102.893171 
1789.868445  	102.978751 
1791.296911  	102.968673 
1792.725378  	103.035890 
1794.153844  	103.048308 
1795.582310  	102.979384 
1797.010777  	103.084792 
1798.439243  	103.105328 
1799.867710  	103.095981 
1801.296176  	103.128242 
1802.724643  	103.066658 
1804.153109  	103.116737 
1805.581575  	103.182140 
1807.010042  	103.131177 
1808.438508  	103.193612 
1809.866975  	103.181689 
1811.295441  	103.153569 
1812.723908  	103.236445 
1814.152374  	103.169146 
1815.580841  	103.181409 
1817.009307  	103.221825 
1818.437773  	103.159231 
1819.866240  	103.214120 
1821.294706  	103.239854 
1822.723173  	103.214270 
1824.151639  	103.274653 
1825.580106  	103.231914 
1827.008572  	103.210601 
1828.437038  	103.247586 
1829.865505  	103.188301 
1831.293971  	103.221144 
1832.722438  	103.195435 
1834.150904  	103.144865 
1835.579371  	103.238761 
1837.007837  	103.235649 
1838.436304  	103.257755 
1839.864770  	103.343405 
1841.293236  	103.280329 
1842.721703  	103.375428 
1844.150169  	103.470822 
1845.578636  	103.330949 
1847.007102  	103.371454 
1848.435569  	103.357662 
1849.864035  	103.299826 
1851.292501  	103.353144 
1852.720968  	103.285905 
1854.149434  	103.318067 
1855.577901  	103.370494 
1857.006367  	103.247689 
1858.434834  	103.308595 
1859.863300  	103.298889 
1861.291766  	103.159857 
1862.720233  	103.232323 
1864.148699  	103.229365 
1865.577166  	103.222421 
1867.005632  	103.303432 
1868.434099  	103.207561 
1869.862565  	103.240132 
1871.291032  	103.224865 
1872.719498  	103.125423 
1874.147964  	103.128634 
1875.576431  	103.078573 
1877.004897  	103.072638 
1878.433364  	103.143658 
1879.861830  	103.061648 
1881.290297  	103.105689 
1882.718763  	103.147400 
1884.147229  	103.066660 
1885.575696  	103.143429 
1887.004162  	103.122293 
1888.432629  	103.031291 
1889.861095  	103.091979 
1891.289562  	103.027912 
1892.718028  	103.022414 
1894.146495  	103.133364 
1895.574961  	103.095881 
1897.003427  	103.169944 
1898.431894  	103.232590 
1899.860360  	103.106181 
1901.288827  	103.096433 
1902.717293  	102.948084 
1904.145760  	102.957007 
1905.574226  	103.111151 
1907.002692  	102.980258 
1908.431159  	103.008886 
1909.859625  	103.029561 
1911.288092  	102.977617 
1912.716558  	103.142047 
1914.145025  	103.025959 
1915.573491  	103.010280 
1917.001957  	103.102919 
1918.430424  	102.948723 
1919.858890  	102.935582 
1921.287357  	103.121479 
1922.715823  	103.102946 
1924.144290  	103.236086 
1925.572756  	103.220332 
1927.001223  	103.048959 
1928.429689  	103.071012 
1929.858155  	103.023334 
1931.286622  	103.024368 
1932.715088  	103.081242 
1934.143555  	102.974334 
1935.572021  	102.985270 
1937.000488  	102.900460 
1938.428954  	102.786335 
1939.857420  	102.979964 
1941.285887  	102.974108 
1942.714353  	102.945397 
1944.142820  	103.067749 
1945.571286  	102.949064 
1946.999753  	103.091594 
1948.428219  	103.249543 
1949.856686  	102.943866 
1951.285152  	102.975692 
1952.713618  	102.901849 
1954.142085  	102.778513 
1955.570551  	103.017391 
1956.999018  	102.958732 
1958.427484  	102.983691 
1959.855951  	103.059038 
1961.284417  	102.899962 
1962.712883  	103.054303 
1964.141350  	102.892454 
1965.569816  	102.747462 
1966.998283  	103.137561 
1968.426749  	102.919018 
1969.855216  	102.829394 
1971.283682  	103.013133 
1972.712149  	102.702734 
1974.140615  	102.800759 
1975.569081  	103.072860 
1976.997548  	102.910776 
1978.426014  	102.919665 
1979.854481  	102.833804 
1981.282947  	102.886612 
1982.711414  	102.988684 
1984.139880  	102.763451 
1985.568346  	102.830380 
1986.996813  	102.962784 
1988.425279  	102.940303 
1989.853746  	103.106991 
1991.282212  	103.018498 
1992.710679  	102.977143 
1994.139145  	103.150243 
1995.567611  	103.017611 
1996.996078  	103.003887 
1998.424544  	103.155137 
1999.853011  	103.026163 
2001.281477  	103.314885 
2002.709944  	103.038953 
2004.138410  	102.640437 
2005.566877  	103.076052 
2006.995343  	103.074221 
2008.423809  	103.124800 
2009.852276  	103.249806 
2011.280742  	102.860595 
2012.709209  	103.102495 
2014.137675  	103.089259 
2015.566142  	102.767284 
2016.994608  	103.119427 
2018.423074  	102.882421 
2019.851541  	102.858022 
2021.280007  	103.244381 
2022.708474  	102.775516 
2024.136940  	102.758676 
2025.565407  	102.870528 
2026.993873  	102.676854 
2028.422340  	103.254413 
2029.850806  	103.131035 
2031.279272  	102.437171 
2032.707739  	102.329619 
2034.136205  	102.248226 
2035.564672  	102.639433 
2036.993138  	102.758657 
2038.421605  	102.407182 
2039.850071  	102.905279 
2041.278537  	103.011668 
2042.707004  	102.655793 
2044.135470  	102.837439 
2045.563937  	102.719403 
2046.992403  	102.762072 
2048.420870  	102.935386 
2049.849336  	102.641644 
2051.277803  	102.748828 
2052.706269  	102.793549 
2054.134735  	102.614810 
2055.563202  	102.805611 
2056.991668  	102.768810 
2058.420135  	102.749326 
2059.848601  	102.923361 
2061.277068  	102.755796 
2062.705534  	102.711547 
2064.134000  	102.617798 
2065.562467  	102.388749 
2066.990933  	102.513806 
2068.419400  	102.464885 
2069.847866  	102.449606 
2071.276333  	102.629451 
2072.704799  	102.382608 
2074.133265  	102.268723 
2075.561732  	102.391960 
2076.990198  	102.406771 
2078.418665  	102.593231 
2079.847131  	102.546324 
2081.275598  	102.432199 
2082.704064  	102.578857 
2084.132531  	102.378853 
2085.560997  	102.179331 
2086.989463  	102.243467 
2088.417930  	102.188893 
2089.846396  	102.275552 
2091.274863  	102.286618 
2092.703329  	102.140344 
2094.131796  	102.249966 
2095.560262  	102.267131 
2096.988728  	102.222969 
2098.417195  	102.278927 
2099.845661  	102.222031 
2101.274128  	102.312194 
2102.702594  	102.327810 
2104.131061  	102.205975 
2105.559527  	102.317082 
2106.987994  	102.281226 
2108.416460  	102.195642 
2109.844926  	102.248249 
2111.273393  	102.126731 
2112.701859  	102.183808 
2114.130326  	102.271483 
2115.558792  	102.093645 
2116.987259  	102.170456 
2118.415725  	102.302686 
2119.844191  	102.257701 
2121.272658  	102.236588 
2122.701124  	102.103613 
2124.129591  	102.106354 
2125.558057  	102.193167 
2126.986524  	102.093209 
2128.414990  	102.104770 
2129.843457  	101.984873 
2131.271923  	101.828227 
2132.700389  	102.008440 
2134.128856  	101.970438 
2135.557322  	102.005589 
2136.985789  	102.285416 
2138.414255  	102.115387 
2139.842722  	102.059255 
2141.271188  	102.142768 
2142.699654  	101.971118 
2144.128121  	101.965960 
2145.556587  	101.828290 
2146.985054  	101.758623 
2148.413520  	101.931717 
2149.841987  	101.692356 
2151.270453  	101.616131 
2152.698919  	101.652890 
2154.127386  	101.520607 
2155.555852  	101.950520 
2156.984319  	102.075080 
2158.412785  	101.858646 
2159.841252  	102.259704 
2161.269718  	102.224230 
2162.698185  	102.067337 
2164.126651  	101.925178 
2165.555117  	101.702600 
2166.983584  	101.939181 
2168.412050  	101.789921 
2169.840517  	101.562064 
2171.268983  	101.877339 
2172.697450  	101.789514 
2174.125916  	101.770900 
2175.554382  	101.940896 
2176.982849  	101.696697 
2178.411315  	101.911197 
2179.839782  	102.044043 
2181.268248  	101.767576 
2182.696715  	101.981332 
2184.125181  	101.968549 
2185.553648  	101.953663 
2186.982114  	102.271565 
2188.410580  	102.022444 
2189.839047  	101.912031 
2191.267513  	102.038111 
2192.695980  	101.814351 
2194.124446  	101.901016 
2195.552913  	102.079391 
2196.981379  	102.129757 
2198.409845  	102.192441 
2199.838312  	101.840831 
2201.266778  	101.724402 
2202.695245  	102.012074 
2204.123711  	102.013559 
2205.552178  	101.946378 
2206.980644  	101.783612 
2208.409111  	101.757791 
2209.837577  	102.099428 
2211.266043  	102.079385 
2212.694510  	101.937803 
2214.122976  	101.954994 
2215.551443  	101.849866 
2216.979909  	101.994378 
2218.408376  	102.030267 
2219.836842  	101.835241 
2221.265308  	101.986475 
2222.693775  	101.992215 
2224.122241  	101.841333 
2225.550708  	101.891644 
2226.979174  	101.858746 
2228.407641  	101.960415 
2229.836107  	102.020488 
2231.264573  	101.848275 
2232.693040  	101.921829 
2234.121506  	101.942743 
2235.549973  	101.863071 
2236.978439  	101.973320 
2238.406906  	101.937403 
2239.835372  	101.888350 
2241.263839  	101.891950 
2242.692305  	101.867954 
2244.120771  	102.051380 
2245.549238  	102.038335 
2246.977704  	101.872590 
2248.406171  	101.970190 
2249.834637  	101.950272 
2251.263104  	101.921976 
2252.691570  	101.997410 
2254.120036  	101.863935 
2255.548503  	101.850586 
2256.976969  	101.929623 
2258.405436  	101.906029 
2259.833902  	101.964875 
2261.262369  	101.902739 
2262.690835  	101.844737 
2264.119302  	101.926755 
2265.547768  	101.885306 
2266.976234  	101.913467 
2268.404701  	101.920335 
2269.833167  	101.771070 
2271.261634  	101.798650 
2272.690100  	101.830206 
2274.118567  	101.805730 
2275.547033  	101.867044 
2276.975499  	101.796526 
2278.403966  	101.739976 
2279.832432  	101.751865 
2281.260899  	101.698158 
2282.689365  	101.720580 
2284.117832  	101.672651 
2285.546298  	101.597228 
2286.974764  	101.669859 
2288.403231  	101.614372 
2289.831697  	101.520603 
2291.260164  	101.561730 
2292.688630  	101.569862 
2294.117097  	101.593158 
2295.545563  	101.571978 
2296.974030  	101.497958 
2298.402496  	101.551743 
2299.830962  	101.562583 
2301.259429  	101.509799 
2302.687895  	101.515090 
2304.116362  	101.505587 
2305.544828  	101.551908 
2306.973295  	101.542427 
2308.401761  	101.433137 
2309.830227  	101.454812 
2311.258694  	101.422509 
2312.687160  	101.333352 
2314.115627  	101.406845 
2315.544093  	101.416190 
2316.972560  	101.401953 
2318.401026  	101.475114 
2319.829493  	101.485064 
2321.257959  	101.513352 
2322.686425  	101.466482 
2324.114892  	101.360281 
2325.543358  	101.436183 
2326.971825  	101.475462 
2328.400291  	101.423727 
2329.828758  	101.439431 
2331.257224  	101.424592 
2332.685690  	101.420802 
2334.114157  	101.417614 
2335.542623  	101.408792 
2336.971090  	101.476359 
2338.399556  	101.431361 
2339.828023  	101.353155 
2341.256489  	101.343849 
2342.684956  	101.261161 
2344.113422  	101.294066 
2345.541888  	101.330505 
2346.970355  	101.241590 
2348.398821  	101.291872 
2349.827288  	101.332284 
2351.255754  	101.286418 
2352.684221  	101.346430 
2354.112687  	101.377775 
2355.541153  	101.343980 
2356.969620  	101.336511 
2358.398086  	101.251051 
2359.826553  	101.211394 
2361.255019  	101.117391 
2362.683486  	101.062825 
2364.111952  	101.207524 
2365.540418  	101.151075 
2366.968885  	101.110626 
2368.397351  	101.292024 
2369.825818  	101.297401 
2371.254284  	101.206317 
2372.682751  	101.131248 
2374.111217  	101.091080 
2375.539684  	101.122502 
2376.968150  	101.039381 
2378.396616  	100.979001 
2379.825083  	101.008662 
2381.253549  	100.931017 
2382.682016  	100.925189 
2384.110482  	101.010957 
2385.538949  	100.987577 
2386.967415  	100.982688 
2388.395881  	100.981152 
2389.824348  	100.898809 
2391.252814  	100.859503 
2392.681281  	100.818095 
2394.109747  	100.793276 
2395.538214  	100.847899 
2396.966680  	100.852720 
2398.395147  	100.838042 
2399.823613  	100.829586 
2401.252079  	100.762643 
2402.680546  	100.718504 
2404.109012  	100.720679 
2405.537479  	100.729259 
2406.965945  	100.696341 
2408.394412  	100.637004 
2409.822878  	100.672168 
2411.251344  	100.685677 
2412.679811  	100.616030 
2414.108277  	100.630883 
2415.536744  	100.639143 
2416.965210  	100.597659 
2418.393677  	100.607668 
2419.822143  	100.569123 
2421.250610  	100.499276 
2422.679076  	100.472895 
2424.107542  	100.458611 
2425.536009  	100.479780 
2426.964475  	100.479865 
2428.392942  	100.450399 
2429.821408  	100.418268 
2431.249875  	100.321001 
2432.678341  	100.271774 
2434.106807  	100.304330 
2435.535274  	100.290535 
2436.963740  	100.260310 
2438.392207  	100.225108 
2439.820673  	100.218090 
2441.249140  	100.252941 
2442.677606  	100.199329 
2444.106072  	100.135463 
2445.534539  	100.132194 
2446.963005  	100.104219 
2448.391472  	100.073893 
2449.819938  	100.011839 
2451.248405  	99.985404 
2452.676871  	100.041983 
2454.105338  	99.977859 
2455.533804  	99.896930 
2456.962270  	99.925771 
2458.390737  	99.897310 
2459.819203  	99.872186 
2461.247670  	99.860526 
2462.676136  	99.808354 
2464.104603  	99.829758 
2465.533069  	99.806165 
2466.961535  	99.744230 
2468.390002  	99.787147 
2469.818468  	99.763357 
2471.246935  	99.689032 
2472.675401  	99.664287 
2474.103868  	99.620463 
2475.532334  	99.631457 
2476.960801  	99.610142 
2478.389267  	99.491111 
2479.817733  	99.478324 
2481.246200  	99.516393 
2482.674666  	99.478828 
2484.103133  	99.413462 
2485.531599  	99.374563 
2486.960066  	99.409416 
2488.388532  	99.392630 
2489.816998  	99.317242 
2491.245465  	99.357374 
2492.673931  	99.404709 
2494.102398  	99.383010 
2495.530864  	99.336258 
2496.959331  	99.256966 
2498.387797  	99.261167 
2499.816264  	99.257690 
2501.244730  	99.157947 
2502.673196  	99.156625 
2504.101663  	99.175736 
2505.530129  	99.148547 
2506.958596  	99.187139 
2508.387062  	99.185560 
2509.815529  	99.156788 
2511.243995  	99.126696 
2512.672461  	99.060277 
2514.100928  	99.109576 
2515.529394  	99.127601 
2516.957861  	98.983779 
2518.386327  	98.919245 
2519.814794  	98.907164 
2521.243260  	98.886083 
2522.671726  	98.914236 
2524.100193  	98.885099 
2525.528659  	98.867626 
2526.957126  	98.903060 
2528.385592  	98.875171 
2529.814059  	98.826973 
2531.242525  	98.752359 
2532.670992  	98.695330 
2534.099458  	98.740608 
2535.527924  	98.773898 
2536.956391  	98.787478 
2538.384857  	98.766344 
2539.813324  	98.667539 
2541.241790  	98.642608 
2542.670257  	98.632522 
2544.098723  	98.565130 
2545.527189  	98.578835 
2546.955656  	98.584154 
2548.384122  	98.531718 
2549.812589  	98.529886 
2551.241055  	98.542539 
2552.669522  	98.544426 
2554.097988  	98.495801 
2555.526455  	98.404267 
2556.954921  	98.372950 
2558.383387  	98.348379 
2559.811854  	98.327532 
2561.240320  	98.352606 
2562.668787  	98.329263 
2564.097253  	98.288412 
2565.525720  	98.262962 
2566.954186  	98.215599 
2568.382652  	98.206217 
2569.811119  	98.209160 
2571.239585  	98.177885 
2572.668052  	98.137777 
2574.096518  	98.112272 
2575.524985  	98.141793 
2576.953451  	98.137700 
2578.381918  	98.072976 
2579.810384  	98.060530 
2581.238850  	98.027747 
2582.667317  	97.990415 
2584.095783  	98.033391 
2585.524250  	98.010298 
2586.952716  	97.939629 
2588.381183  	97.899502 
2589.809649  	97.815124 
2591.238115  	97.759354 
2592.666582  	97.743214 
2594.095048  	97.706232 
2595.523515  	97.707985 
2596.951981  	97.682441 
2598.380448  	97.597177 
2599.808914  	97.540790 
2601.237380  	97.496400 
2602.665847  	97.457770 
2604.094313  	97.422187 
2605.522780  	97.392679 
2606.951246  	97.426811 
2608.379713  	97.441582 
2609.808179  	97.371945 
2611.236646  	97.307914 
2612.665112  	97.284212 
2614.093578  	97.252343 
2615.522045  	97.163523 
2616.950511  	97.084267 
2618.378978  	97.071619 
2619.807444  	97.015173 
2621.235911  	96.937723 
2622.664377  	96.921195 
2624.092843  	96.888566 
2625.521310  	96.857448 
2626.949776  	96.828477 
2628.378243  	96.753154 
2629.806709  	96.738471 
2631.235176  	96.750163 
2632.663642  	96.686762 
2634.092109  	96.626611 
2635.520575  	96.575009 
2636.949041  	96.532976 
2638.377508  	96.541107 
2639.805974  	96.512284 
2641.234441  	96.441378 
2642.662907  	96.394259 
2644.091374  	96.347119 
2645.519840  	96.306307 
2646.948306  	96.293897 
2648.376773  	96.283882 
2649.805239  	96.232989 
2651.233706  	96.151011 
2652.662172  	96.121812 
2654.090639  	96.121124 
2655.519105  	96.078703 
2656.947571  	96.048102 
2658.376038  	96.029320 
2659.804504  	95.974128 
2661.232971  	95.916160 
2662.661437  	95.873428 
2664.089904  	95.842839 
2665.518370  	95.813110 
2666.946837  	95.760771 
2668.375303  	95.710052 
2669.803769  	95.682110 
2671.232236  	95.668253 
2672.660702  	95.636713 
2674.089169  	95.576328 
2675.517635  	95.564290 
2676.946102  	95.589825 
2678.374568  	95.557461 
2679.803034  	95.513658 
2681.231501  	95.502832 
2682.659967  	95.482295 
2684.088434  	95.448050 
2685.516900  	95.395403 
2686.945367  	95.342964 
2688.373833  	95.314691 
2689.802300  	95.274876 
2691.230766  	95.229505 
2692.659232  	95.199879 
2694.087699  	95.172989 
2695.516165  	95.141343 
2696.944632  	95.084078 
2698.373098  	95.026130 
2699.801565  	95.006584 
2701.230031  	94.995767 
2702.658497  	94.971037 
2704.086964  	94.921306 
2705.515430  	94.859214 
2706.943897  	94.821316 
2708.372363  	94.786210 
2709.800830  	94.744619 
2711.229296  	94.690567 
2712.657763  	94.608396 
2714.086229  	94.549509 
2715.514695  	94.492346 
2716.943162  	94.408668 
2718.371628  	94.367893 
2719.800095  	94.324329 
2721.228561  	94.245306 
2722.657028  	94.196718 
2724.085494  	94.142006 
2725.513960  	94.075244 
2726.942427  	94.019857 
2728.370893  	93.953317 
2729.799360  	93.913997 
2731.227826  	93.851818 
2732.656293  	93.744286 
2734.084759  	93.709580 
2735.513225  	93.688532 
2736.941692  	93.616079 
2738.370158  	93.562803 
2739.798625  	93.494024 
2741.227091  	93.425757 
2742.655558  	93.391090 
2744.084024  	93.320447 
2745.512491  	93.260525 
2746.940957  	93.226156 
2748.369423  	93.149793 
2749.797890  	93.078243 
2751.226356  	93.021887 
2752.654823  	92.963850 
2754.083289  	92.928039 
2755.511756  	92.879676 
2756.940222  	92.819506 
2758.368688  	92.760020 
2759.797155  	92.683470 
2761.225621  	92.613581 
2762.654088  	92.538445 
2764.082554  	92.467233 
2765.511021  	92.431948 
2766.939487  	92.375950 
2768.367954  	92.288964 
2769.796420  	92.205381 
2771.224886  	92.127045 
2772.653353  	92.069671 
2774.081819  	92.009223 
2775.510286  	91.948060 
2776.938752  	91.908566 
2778.367219  	91.838872 
2779.795685  	91.753448 
2781.224151  	91.678847 
2782.652618  	91.593395 
2784.081084  	91.530586 
2785.509551  	91.457226 
2786.938017  	91.359513 
2788.366484  	91.308604 
2789.794950  	91.245217 
2791.223417  	91.142192 
2792.651883  	91.064122 
2794.080349  	90.990775 
2795.508816  	90.920136 
2796.937282  	90.833927 
2798.365749  	90.723922 
2799.794215  	90.659132 
2801.222682  	90.572275 
2802.651148  	90.441685 
2804.079614  	90.379461 
2805.508081  	90.320669 
2806.936547  	90.212717 
2808.365014  	90.116745 
2809.793480  	90.016238 
2811.221947  	89.921025 
2812.650413  	89.831962 
2814.078879  	89.727511 
2815.507346  	89.629363 
2816.935812  	89.495734 
2818.364279  	89.366371 
2819.792745  	89.307220 
2821.221212  	89.212706 
2822.649678  	89.080020 
2824.078145  	88.977791 
2825.506611  	88.860137 
2826.935077  	88.748543 
2828.363544  	88.657974 
2829.792010  	88.539217 
2831.220477  	88.407273 
2832.648943  	88.270294 
2834.077410  	88.123828 
2835.505876  	87.957676 
2836.934342  	87.771326 
2838.362809  	87.606806 
2839.791275  	87.412694 
2841.219742  	87.165548 
2842.648208  	86.943988 
2844.076675  	86.695168 
2845.505141  	86.377976 
2846.933608  	86.045286 
2848.362074  	85.678552 
2849.790540  	85.331805 
2851.219007  	85.090692 
2852.647473  	84.927194 
2854.075940  	84.816238 
2855.504406  	84.724830 
2856.932873  	84.667436 
2858.361339  	84.666907 
2859.789805  	84.607431 
2861.218272  	84.477841 
2862.646738  	84.339912 
2864.075205  	84.153555 
2865.503671  	83.959371 
2866.932138  	83.755445 
2868.360604  	83.482445 
2869.789071  	83.235540 
2871.217537  	83.057587 
2872.646003  	82.925511 
2874.074470  	82.861888 
2875.502936  	82.842603 
2876.931403  	82.890203 
2878.359869  	82.990037 
2879.788336  	83.069612 
2881.216802  	83.155416 
2882.645268  	83.220560 
2884.073735  	83.268999 
2885.502201  	83.362449 
2886.930668  	83.418165 
2888.359134  	83.452322 
2889.787601  	83.514105 
2891.216067  	83.511957 
2892.644533  	83.508629 
2894.073000  	83.544290 
2895.501466  	83.524844 
2896.929933  	83.488242 
2898.358399  	83.436451 
2899.786866  	83.338036 
2901.215332  	83.225941 
2902.643799  	83.062384 
2904.072265  	82.885015 
2905.500731  	82.716073 
2906.929198  	82.493029 
2908.357664  	82.278389 
2909.786131  	82.047163 
2911.214597  	81.727287 
2912.643064  	81.416227 
2914.071530  	81.100485 
2915.499996  	80.732971 
2916.928463  	80.392318 
2918.356929  	80.063233 
2919.785396  	79.753931 
2921.213862  	79.526336 
2922.642329  	79.338217 
2924.070795  	79.177010 
2925.499262  	79.056560 
2926.927728  	78.986012 
2928.356194  	78.978929 
2929.784661  	78.990830 
2931.213127  	79.024983 
2932.641594  	79.102077 
2934.070060  	79.213238 
2935.498527  	79.371846 
2936.926993  	79.546427 
2938.355459  	79.755794 
2939.783926  	80.012473 
2941.212392  	80.243892 
2942.640859  	80.496292 
2944.069325  	80.748561 
2945.497792  	80.882968 
2946.926258  	80.949544 
2948.354724  	80.976132 
2949.783191  	80.989036 
2951.211657  	81.031220 
2952.640124  	80.976071 
2954.068590  	80.875943 
2955.497057  	80.890446 
2956.925523  	80.940368 
2958.353990  	81.005213 
2959.782456  	81.111271 
2961.210922  	81.240426 
2962.639389  	81.468368 
2964.067855  	81.745822 
2965.496322  	82.018467 
2966.924788  	82.343567 
2968.353255  	82.652320 
2969.781721  	82.945051 
2971.210187  	83.274316 
2972.638654  	83.572089 
2974.067120  	83.859209 
2975.495587  	84.150276 
2976.924053  	84.402853 
2978.352520  	84.660671 
2979.780986  	84.907674 
2981.209453  	85.116468 
2982.637919  	85.333039 
2984.066385  	85.538446 
2985.494852  	85.703581 
2986.923318  	85.852761 
2988.351785  	86.000632 
2989.780251  	86.119954 
2991.208718  	86.203061 
2992.637184  	86.303014 
2994.065650  	86.387298 
2995.494117  	86.405487 
2996.922583  	86.433409 
2998.351050  	86.470802 
2999.779516  	86.467884 
3001.207983  	86.462734 
3002.636449  	86.445672 
3004.064916  	86.397204 
3005.493382  	86.327181 
3006.921848  	86.226021 
3008.350315  	86.132585 
3009.778781  	86.062462 
3011.207248  	85.995253 
3012.635714  	85.928833 
3014.064181  	85.835500 
3015.492647  	85.752666 
3016.921113  	85.694527 
3018.349580  	85.572460 
3019.778046  	85.421679 
3021.206513  	85.299473 
3022.634979  	85.175233 
3024.063446  	85.060529 
3025.491912  	84.909271 
3026.920378  	84.721819 
3028.348845  	84.609838 
3029.777311  	84.511444 
3031.205778  	84.360098 
3032.634244  	84.250821 
3034.062711  	84.186479 
3035.491177  	84.112279 
3036.919644  	84.001301 
3038.348110  	83.843767 
3039.776576  	83.705681 
3041.205043  	83.607678 
3042.633509  	83.492422 
3044.061976  	83.340753 
3045.490442  	83.176034 
3046.918909  	83.049979 
3048.347375  	82.963774 
3049.775841  	82.853772 
3051.204308  	82.713296 
3052.632774  	82.582967 
3054.061241  	82.479005 
3055.489707  	82.366136 
3056.918174  	82.228252 
3058.346640  	82.123713 
3059.775107  	82.047364 
3061.203573  	81.963605 
3062.632039  	81.892944 
3064.060506  	81.813408 
3065.488972  	81.721846 
3066.917439  	81.635173 
3068.345905  	81.550387 
3069.774372  	81.517728 
3071.202838  	81.483690 
3072.631304  	81.399077 
3074.059771  	81.374118 
3075.488237  	81.347410 
3076.916704  	81.248117 
3078.345170  	81.209246 
3079.773637  	81.198622 
3081.202103  	81.153331 
3082.630570  	81.138253 
3084.059036  	81.115749 
3085.487502  	81.079280 
3086.915969  	81.043259 
3088.344435  	80.985032 
3089.772902  	80.977263 
3091.201368  	80.990548 
3092.629835  	80.947231 
3094.058301  	80.912027 
3095.486767  	80.880486 
3096.915234  	80.818260 
3098.343700  	80.784184 
3099.772167  	80.788612 
3101.200633  	80.771341 
3102.629100  	80.690730 
3104.057566  	80.608968 
3105.486032  	80.561139 
3106.914499  	80.495050 
3108.342965  	80.451308 
3109.771432  	80.414161 
3111.199898  	80.316521 
3112.628365  	80.248717 
3114.056831  	80.194028 
3115.485298  	80.092068 
3116.913764  	80.011454 
3118.342230  	79.902264 
3119.770697  	79.781651 
3121.199163  	79.718912 
3122.627630  	79.594581 
3124.056096  	79.458996 
3125.484563  	79.398992 
3126.913029  	79.280090 
3128.341495  	79.136411 
3129.769962  	79.048496 
3131.198428  	78.938864 
3132.626895  	78.783771 
3134.055361  	78.614768 
3135.483828  	78.485658 
3136.912294  	78.372536 
3138.340761  	78.214667 
3139.769227  	78.093302 
3141.197693  	77.981632 
3142.626160  	77.812876 
3144.054626  	77.692930 
3145.483093  	77.590675 
3146.911559  	77.441206 
3148.340026  	77.281171 
3149.768492  	77.068976 
3151.196958  	76.874259 
3152.625425  	76.768565 
3154.053891  	76.650228 
3155.482358  	76.508960 
3156.910824  	76.369097 
3158.339291  	76.230748 
3159.767757  	76.087837 
3161.196224  	75.877800 
3162.624690  	75.685456 
3164.053156  	75.554790 
3165.481623  	75.383224 
3166.910089  	75.245382 
3168.338556  	75.131894 
3169.767022  	74.942605 
3171.195489  	74.789157 
3172.623955  	74.658021 
3174.052421  	74.482253 
3175.480888  	74.346369 
3176.909354  	74.203917 
3178.337821  	74.014611 
3179.766287  	73.856156 
3181.194754  	73.751477 
3182.623220  	73.660466 
3184.051686  	73.489213 
3185.480153  	73.295302 
3186.908619  	73.203291 
3188.337086  	73.115816 
3189.765552  	72.985993 
3191.194019  	72.856206 
3192.622485  	72.723510 
3194.050952  	72.637398 
3195.479418  	72.549586 
3196.907884  	72.429621 
3198.336351  	72.341263 
3199.764817  	72.206514 
3201.193284  	72.057394 
3202.621750  	71.980937 
3204.050217  	71.876512 
3205.478683  	71.762530 
3206.907149  	71.673814 
3208.335616  	71.548958 
3209.764082  	71.447983 
3211.192549  	71.379188 
3212.621015  	71.307132 
3214.049482  	71.237659 
3215.477948  	71.137843 
3216.906415  	71.049167 
3218.334881  	70.946300 
3219.763347  	70.782724 
3221.191814  	70.676980 
3222.620280  	70.612265 
3224.048747  	70.527270 
3225.477213  	70.467614 
3226.905680  	70.366621 
3228.334146  	70.217818 
3229.762612  	70.094892 
3231.191079  	70.000849 
3232.619545  	69.933000 
3234.048012  	69.817329 
3235.476478  	69.669731 
3236.904945  	69.569455 
3238.333411  	69.432498 
3239.761878  	69.282762 
3241.190344  	69.162952 
3242.618810  	68.982028 
3244.047277  	68.791740 
3245.475743  	68.627007 
3246.904210  	68.487738 
3248.332676  	68.397633 
3249.761143  	68.226556 
3251.189609  	68.016513 
3252.618075  	67.870219 
3254.046542  	67.665581 
3255.475008  	67.465398 
3256.903475  	67.327364 
3258.331941  	67.148610 
3259.760408  	67.000193 
3261.188874  	66.865628 
3262.617340  	66.699907 
3264.045807  	66.595532 
3265.474273  	66.488371 
3266.902740  	66.336053 
3268.331206  	66.185298 
3269.759673  	66.060221 
3271.188139  	66.011709 
3272.616606  	65.939944 
3274.045072  	65.837145 
3275.473538  	65.833503 
3276.902005  	65.816889 
3278.330471  	65.765473 
3279.758938  	65.757900 
3281.187404  	65.744672 
3282.615871  	65.789583 
3284.044337  	65.863612 
3285.472803  	65.907544 
3286.901270  	66.022055 
3288.329736  	66.122631 
3289.758203  	66.197669 
3291.186669  	66.353914 
3292.615136  	66.478496 
3294.043602  	66.583896 
3295.472069  	66.726863 
3296.900535  	66.834776 
3298.329001  	66.967645 
3299.757468  	67.126475 
3301.185934  	67.295513 
3302.614401  	67.526490 
3304.042867  	67.720916 
3305.471334  	67.867758 
3306.899800  	68.035077 
3308.328266  	68.205365 
3309.756733  	68.393044 
3311.185199  	68.554083 
3312.613666  	68.712455 
3314.042132  	68.920878 
3315.470599  	69.071908 
3316.899065  	69.222062 
3318.327531  	69.437192 
3319.755998  	69.613720 
3321.184464  	69.796609 
3322.612931  	69.980591 
3324.041397  	70.123027 
3325.469864  	70.300492 
3326.898330  	70.447851 
3328.326797  	70.578410 
3329.755263  	70.779651 
3331.183729  	70.950944 
3332.612196  	71.093802 
3334.040662  	71.247713 
3335.469129  	71.377272 
3336.897595  	71.521392 
3338.326062  	71.656971 
3339.754528  	71.799463 
3341.182994  	71.984757 
3342.611461  	72.127840 
3344.039927  	72.256294 
3345.468394  	72.395078 
3346.896860  	72.522315 
3348.325327  	72.705011 
3349.753793  	72.871297 
3351.182260  	72.973666 
3352.610726  	73.082770 
3354.039192  	73.180019 
3355.467659  	73.319846 
3356.896125  	73.493582 
3358.324592  	73.618942 
3359.753058  	73.791906 
3361.181525  	73.969131 
3362.609991  	74.069658 
3364.038457  	74.185627 
3365.466924  	74.277780 
3366.895390  	74.374370 
3368.323857  	74.560269 
3369.752323  	74.718142 
3371.180790  	74.858660 
3372.609256  	75.049496 
3374.037723  	75.199532 
3375.466189  	75.288420 
3376.894655  	75.395549 
3378.323122  	75.560048 
3379.751588  	75.697062 
3381.180055  	75.777926 
3382.608521  	75.906374 
3384.036988  	76.027095 
3385.465454  	76.124926 
3386.893920  	76.292959 
3388.322387  	76.437282 
3389.750853  	76.562519 
3391.179320  	76.686085 
3392.607786  	76.712487 
3394.036253  	76.823014 
3395.464719  	77.061653 
3396.893185  	77.232998 
3398.321652  	77.373446 
3399.750118  	77.477646 
3401.178585  	77.526261 
3402.607051  	77.622614 
3404.035518  	77.750495 
3405.463984  	77.929688 
3406.892451  	78.110387 
3408.320917  	78.197401 
3409.749383  	78.336576 
3411.177850  	78.517615 
3412.606316  	78.656291 
3414.034783  	78.826156 
3415.463249  	78.936439 
3416.891716  	79.020104 
3418.320182  	79.192008 
3419.748648  	79.313298 
3421.177115  	79.390533 
3422.605581  	79.504708 
3424.034048  	79.643428 
3425.462514  	79.860790 
3426.890981  	80.040270 
3428.319447  	80.138324 
3429.747914  	80.298484 
3431.176380  	80.456300 
3432.604846  	80.580282 
3434.033313  	80.742505 
3435.461779  	80.911119 
3436.890246  	81.067806 
3438.318712  	81.189126 
3439.747179  	81.328006 
3441.175645  	81.498978 
3442.604111  	81.586111 
3444.032578  	81.717324 
3445.461044  	81.930405 
3446.889511  	82.027828 
3448.317977  	82.144272 
3449.746444  	82.376196 
3451.174910  	82.574967 
3452.603377  	82.758273 
3454.031843  	82.911646 
3455.460309  	83.028970 
3456.888776  	83.188905 
3458.317242  	83.350259 
3459.745709  	83.504104 
3461.174175  	83.646870 
3462.602642  	83.745125 
3464.031108  	83.883826 
3465.459574  	84.069091 
3466.888041  	84.249355 
3468.316507  	84.422436 
3469.744974  	84.568913 
3471.173440  	84.725859 
3472.601907  	84.886769 
3474.030373  	85.014191 
3475.458839  	85.170630 
3476.887306  	85.367011 
3478.315772  	85.566792 
3479.744239  	85.724124 
3481.172705  	85.815005 
3482.601172  	85.943520 
3484.029638  	86.109464 
3485.458105  	86.260445 
3486.886571  	86.430511 
3488.315037  	86.560613 
3489.743504  	86.707280 
3491.171970  	86.938444 
3492.600437  	87.113763 
3494.028903  	87.272869 
3495.457370  	87.466432 
3496.885836  	87.582870 
3498.314302  	87.713458 
3499.742769  	87.899364 
3501.171235  	88.038222 
3502.599702  	88.136786 
3504.028168  	88.223258 
3505.456635  	88.388970 
3506.885101  	88.635927 
3508.313568  	88.822175 
3509.742034  	88.946762 
3511.170500  	89.061986 
3512.598967  	89.184572 
3514.027433  	89.359236 
3515.455900  	89.541525 
3516.884366  	89.705938 
3518.312833  	89.858497 
3519.741299  	90.002260 
3521.169765  	90.173957 
3522.598232  	90.256379 
3524.026698  	90.276255 
3525.455165  	90.463517 
3526.883631  	90.651748 
3528.312098  	90.781164 
3529.740564  	91.018028 
3531.169031  	91.184865 
3532.597497  	91.279986 
3534.025963  	91.487896 
3535.454430  	91.656111 
3536.882896  	91.701796 
3538.311363  	91.839986 
3539.739829  	92.099492 
3541.168296  	92.254821 
3542.596762  	92.349672 
3544.025228  	92.451041 
3545.453695  	92.554387 
3546.882161  	92.621125 
3548.310628  	92.745358 
3549.739094  	92.932772 
3551.167561  	93.087184 
3552.596027  	93.189371 
3554.024493  	93.267031 
3555.452960  	93.386898 
3556.881426  	93.542711 
3558.309893  	93.682530 
3559.738359  	93.814205 
3561.166826  	93.941887 
3562.595292  	94.056555 
3564.023759  	94.202495 
3565.452225  	94.307110 
3566.880691  	94.328269 
3568.309158  	94.397875 
3569.737624  	94.534906 
3571.166091  	94.679133 
3572.594557  	94.825156 
3574.023024  	94.952305 
3575.451490  	95.066723 
3576.879956  	95.169764 
3578.308423  	95.294418 
3579.736889  	95.426986 
3581.165356  	95.521396 
3582.593822  	95.642229 
3584.022289  	95.783122 
3585.450755  	95.866324 
3586.879222  	95.930385 
3588.307688  	95.966693 
3589.736154  	96.085784 
3591.164621  	96.267255 
3592.593087  	96.391226 
3594.021554  	96.471103 
3595.450020  	96.545986 
3596.878487  	96.661594 
3598.306953  	96.810280 
3599.735419  	96.910202 
3601.163886  	96.941150 
3602.592352  	97.064519 
3604.020819  	97.200778 
3605.449285  	97.335101 
3606.877752  	97.465203 
3608.306218  	97.506802 
3609.734685  	97.575928 
3611.163151  	97.735929 
3612.591617  	97.849247 
3614.020084  	97.914111 
3615.448550  	98.005468 
3616.877017  	98.118522 
3618.305483  	98.203289 
3619.733950  	98.241541 
3621.162416  	98.345923 
3622.590882  	98.491772 
3624.019349  	98.623445 
3625.447815  	98.777226 
3626.876282  	98.913545 
3628.304748  	98.926633 
3629.733215  	98.878845 
3631.161681  	99.018427 
3632.590147  	99.166854 
3634.018614  	99.256049 
3635.447080  	99.313661 
3636.875547  	99.408999 
3638.304013  	99.518952 
3639.732480  	99.645363 
3641.160946  	99.772807 
3642.589413  	99.837499 
3644.017879  	99.917735 
3645.446345  	100.038783 
3646.874812  	100.106129 
3648.303278  	100.089766 
3649.731745  	99.915277 
3651.160211  	99.792515 
3652.588678  	99.990567 
3654.017144  	100.174257 
3655.445610  	100.275863 
3656.874077  	100.288705 
3658.302543  	100.293750 
3659.731010  	100.379751 
3661.159476  	100.442575 
3662.587943  	100.451160 
3664.016409  	100.531143 
3665.444876  	100.605645 
3666.873342  	100.681098 
3668.301808  	100.762455 
3669.730275  	100.703019 
3671.158741  	100.650730 
3672.587208  	100.770488 
3674.015674  	100.840871 
3675.444141  	100.753989 
3676.872607  	100.772282 
3678.301073  	100.856263 
3679.729540  	100.878757 
3681.158006  	100.924550 
3682.586473  	101.004281 
3684.014939  	101.011241 
3685.443406  	101.017553 
3686.871872  	101.087102 
3688.300338  	101.094382 
3689.728805  	101.060108 
3691.157271  	101.056432 
3692.585738  	101.023907 
3694.014204  	101.091681 
3695.442671  	101.149567 
3696.871137  	101.110109 
3698.299604  	101.127809 
3699.728070  	101.181797 
3701.156536  	101.139486 
3702.585003  	101.175743 
3704.013469  	101.251441 
3705.441936  	101.245355 
3706.870402  	101.212319 
3708.298869  	101.175939 
3709.727335  	101.140837 
3711.155801  	101.138628 
3712.584268  	101.178352 
3714.012734  	101.267881 
3715.441201  	101.316851 
3716.869667  	101.324780 
3718.298134  	101.308799 
3719.726600  	101.275034 
3721.155067  	101.253887 
3722.583533  	101.242239 
3724.011999  	101.228893 
3725.440466  	101.256184 
3726.868932  	101.275870 
3728.297399  	101.344465 
3729.725865  	101.441513 
3731.154332  	101.396839 
3732.582798  	101.302581 
3734.011264  	101.352547 
3735.439731  	101.321133 
3736.868197  	101.273282 
3738.296664  	101.348303 
3739.725130  	101.347565 
3741.153597  	101.384686 
3742.582063  	101.478768 
3744.010530  	101.460462 
3745.438996  	101.278476 
3746.867462  	101.276714 
3748.295929  	101.348923 
3749.724395  	101.431463 
3751.152862  	101.390642 
3752.581328  	101.260460 
3754.009795  	101.270606 
3755.438261  	101.335020 
3756.866727  	101.349650 
3758.295194  	101.323391 
3759.723660  	101.339777 
3761.152127  	101.359228 
3762.580593  	101.353897 
3764.009060  	101.356368 
3765.437526  	101.349398 
3766.865992  	101.336383 
3768.294459  	101.318560 
3769.722925  	101.287024 
3771.151392  	101.301614 
3772.579858  	101.300692 
3774.008325  	101.263397 
3775.436791  	101.279043 
3776.865258  	101.324198 
3778.293724  	101.330327 
3779.722190  	101.302676 
3781.150657  	101.280485 
3782.579123  	101.283053 
3784.007590  	101.284533 
3785.436056  	101.261567 
3786.864523  	101.244026 
3788.292989  	101.205560 
3789.721455  	101.177762 
3791.149922  	101.218664 
3792.578388  	101.248096 
3794.006855  	101.260516 
3795.435321  	101.283925 
3796.863788  	101.261533 
3798.292254  	101.287942 
3799.720721  	101.367442 
3801.149187  	101.267306 
3802.577653  	101.117492 
3804.006120  	101.188189 
3805.434586  	101.243744 
3806.863053  	101.212538 
3808.291519  	101.194237 
3809.719986  	101.196243 
3811.148452  	101.191097 
3812.576918  	101.232118 
3814.005385  	101.325417 
3815.433851  	101.357393 
3816.862318  	101.284127 
3818.290784  	101.313421 
3819.719251  	101.318269 
3821.147717  	101.164404 
3822.576184  	101.129276 
3824.004650  	101.197606 
3825.433116  	101.198629 
3826.861583  	101.166878 
3828.290049  	101.202335 
3829.718516  	101.292184 
3831.146982  	101.335660 
3832.575449  	101.329584 
3834.003915  	101.318499 
3835.432381  	101.312973 
3836.860848  	101.289401 
3838.289314  	101.208138 
3839.717781  	101.114459 
3841.146247  	101.113316 
3842.574714  	101.133622 
3844.003180  	101.179759 
3845.431646  	101.250301 
3846.860113  	101.273935 
3848.288579  	101.287422 
3849.717046  	101.320131 
3851.145512  	101.354538 
3852.573979  	101.272470 
3854.002445  	101.098181 
3855.430912  	101.141030 
3856.859378  	101.169967 
3858.287844  	101.164207 
3859.716311  	101.195729 
3861.144777  	101.232510 
3862.573244  	101.241313 
3864.001710  	101.248886 
3865.430177  	101.265686 
3866.858643  	101.348976 
3868.287109  	101.426618 
3869.715576  	101.304260 
3871.144042  	101.144975 
3872.572509  	101.152896 
3874.000975  	101.088671 
3875.429442  	101.067901 
3876.857908  	101.178312 
3878.286375  	101.237849 
3879.714841  	101.257206 
3881.143307  	101.237707 
3882.571774  	101.261680 
3884.000240  	101.334540 
3885.428707  	101.259797 
3886.857173  	101.125675 
3888.285640  	101.163213 
3889.714106  	101.181203 
3891.142572  	101.132809 
3892.571039  	101.125238 
3893.999505  	101.151274 
3895.427972  	101.207964 
3896.856438  	101.274749 
3898.284905  	101.303940 
3899.713371  	101.306041 
3901.141838  	101.286245 
3902.570304  	101.247560 
3903.998770  	101.176598 
3905.427237  	101.101137 
3906.855703  	101.127379 
3908.284170  	101.194495 
3909.712636  	101.210333 
3911.141103  	101.207617 
3912.569569  	101.203705 
3913.998035  	101.206501 
3915.426502  	101.211949 
3916.854968  	101.189935 
3918.283435  	101.195826 
3919.711901  	101.212828 
3921.140368  	101.176757 
3922.568834  	101.158298 
3923.997300  	101.138617 
3925.425767  	101.089612 
3926.854233  	101.106629 
3928.282700  	101.157917 
3929.711166  	101.185080 
3931.139633  	101.163963 
3932.568099  	101.135587 
3933.996566  	101.119688 
3935.425032  	101.103474 
3936.853498  	101.083011 
3938.281965  	101.086688 
3939.710431  	101.119975 
3941.138898  	101.131001 
3942.567364  	101.081868 
3943.995831  	101.062378 
3945.424297  	101.129373 
3946.852763  	101.154039 
3948.281230  	101.144700 
3949.709696  	101.137557 
3951.138163  	101.100716 
3952.566629  	101.114672 
3953.995096  	101.134283 
3955.423562  	101.062743 
3956.852029  	101.058409 
3958.280495  	101.106062 
3959.708961  	101.095039 
3961.137428  	101.089742 
3962.565894  	101.077724 
3963.994361  	101.063699 
3965.422827  	101.109841 
3966.851294  	101.120675 
3968.279760  	101.088123 
3969.708226  	101.082839 
3971.136693  	101.119256 
3972.565159  	101.161989 
3973.993626  	101.105206 
3975.422092  	101.042401 
3976.850559  	101.082632 
3978.279025  	101.074361 
3979.707491  	101.025022 
3981.135958  	101.002919 
3982.564424  	100.977388 
3983.992891  	101.032927 
3985.421357  	101.102809 
3986.849824  	101.077193 
3988.278290  	101.047309 
3989.706757  	101.005120 
3991.135223  	100.967573 
3992.563689  	101.006013 
3993.992156  	101.028440 
3995.420622  	101.038068 
3996.849089  	101.068874 
3998.277555  	101.056881 
3999.706022  	101.018243 
